Wavenumber (cm-1)	Wavelength (Âµm)	Wavelength (nm)	SynOl_Fo70
33333	0.30000	300.00	0.090560
32787	0.30500	305.00	0.094310
32258	0.31000	310.00	0.097880
31746	0.31500	315.00	0.10479
31250	0.32000	320.00	0.11528
30769	0.32500	325.00	0.12706
30303	0.33000	330.00	0.14385
29851	0.33500	335.00	0.16360
29412	0.34000	340.00	0.19019
28986	0.34500	345.00	0.22099
28571	0.35000	350.00	0.25524
28169	0.35500	355.00	0.29304
27778	0.36000	360.00	0.33287
27397	0.36500	365.00	0.37208
27027	0.37000	370.00	0.40805
26667	0.37500	375.00	0.44046
26316	0.38000	380.00	0.46666
25974	0.38500	385.00	0.48854
25641	0.39000	390.00	0.50851
25316	0.39500	395.00	0.52109
25000	0.40000	400.00	0.51630
24691	0.40500	405.00	0.53883
24390	0.41000	410.00	0.56063
24096	0.41500	415.00	0.56984
23810	0.42000	420.00	0.57357
23529	0.42500	425.00	0.57533
23256	0.43000	430.00	0.57650
22989	0.43500	435.00	0.57945
22727	0.44000	440.00	0.58153
22472	0.44500	445.00	0.57584
22222	0.45000	450.00	0.56642
21978	0.45500	455.00	0.56637
21739	0.46000	460.00	0.57592
21505	0.46500	465.00	0.58476
21277	0.47000	470.00	0.58914
21053	0.47500	475.00	0.60407
20833	0.48000	480.00	0.61609
20619	0.48500	485.00	0.61696
20408	0.49000	490.00	0.61730
20202	0.49500	495.00	0.61578
20000	0.50000	500.00	0.63022
19802	0.50500	505.00	0.64473
19608	0.51000	510.00	0.65494
19417	0.51500	515.00	0.66091
19231	0.52000	520.00	0.66524
19048	0.52500	525.00	0.66843
18868	0.53000	530.00	0.67469
18692	0.53500	535.00	0.68050
18519	0.54000	540.00	0.68985
18349	0.54500	545.00	0.69762
18182	0.55000	550.00	0.70279
18018	0.55500	555.00	0.70512
17857	0.56000	560.00	0.70852
17699	0.56500	565.00	0.71096
17544	0.57000	570.00	0.71073
17391	0.57500	575.00	0.71098
17241	0.58000	580.00	0.71062
17094	0.58500	585.00	0.71083
16949	0.59000	590.00	0.71042
16807	0.59500	595.00	0.70932
16667	0.60000	600.00	0.70908
16529	0.60500	605.00	0.70744
16393	0.61000	610.00	0.70722
16260	0.61500	615.00	0.70642
16129	0.62000	620.00	0.70537
16000	0.62500	625.00	0.70478
15873	0.63000	630.00	0.70566
15748	0.63500	635.00	0.70778
15625	0.64000	640.00	0.71158
15504	0.64500	645.00	0.71483
15385	0.65000	650.00	0.71841
15267	0.65500	655.00	0.72100
15152	0.66000	660.00	0.72332
15038	0.66500	665.00	0.72286
14925	0.67000	670.00	0.72316
14815	0.67500	675.00	0.72289
14706	0.68000	680.00	0.72068
14599	0.68500	685.00	0.71808
14493	0.69000	690.00	0.71540
14388	0.69500	695.00	0.71029
14286	0.70000	700.00	0.70623
14184	0.70500	705.00	0.69997
14085	0.71000	710.00	0.69447
13986	0.71500	715.00	0.68811
13889	0.72000	720.00	0.68146
13793	0.72500	725.00	0.67988
13699	0.73000	730.00	0.67202
13605	0.73500	735.00	0.66339
13514	0.74000	740.00	0.65621
13423	0.74500	745.00	0.64840
13333	0.75000	750.00	0.63795
13245	0.75500	755.00	0.63101
13158	0.76000	760.00	0.62354
13072	0.76500	765.00	0.61433
12987	0.77000	770.00	0.60632
12903	0.77500	775.00	0.59713
12821	0.78000	780.00	0.58820
12739	0.78500	785.00	0.57913
12658	0.79000	790.00	0.57076
12579	0.79500	795.00	0.56224
12500	0.80000	800.00	0.55376
12422	0.80500	805.00	0.54522
12346	0.81000	810.00	0.53753
12270	0.81500	815.00	0.53038
12195	0.82000	820.00	0.52344
12121	0.82500	825.00	0.51604
12048	0.83000	830.00	0.50963
11976	0.83500	835.00	0.50429
11905	0.84000	840.00	0.49855
11834	0.84500	845.00	0.49328
11765	0.85000	850.00	0.48823
11696	0.85500	855.00	0.48447
11628	0.86000	860.00	0.48074
11561	0.86500	865.00	0.47807
11494	0.87000	870.00	0.47325
11429	0.87500	875.00	0.47006
11364	0.88000	880.00	0.46694
11299	0.88500	885.00	0.46364
11236	0.89000	890.00	0.46081
11173	0.89500	895.00	0.45759
11111	0.90000	900.00	0.45391
11050	0.90500	905.00	0.45146
10989	0.91000	910.00	0.44806
10929	0.91500	915.00	0.44415
10870	0.92000	920.00	0.44086
10811	0.92500	925.00	0.43705
10753	0.93000	930.00	0.43224
10695	0.93500	935.00	0.42769
10638	0.94000	940.00	0.42358
10582	0.94500	945.00	0.41868
10526	0.95000	950.00	0.41422
10471	0.95500	955.00	0.40898
10417	0.96000	960.00	0.40413
10363	0.96500	965.00	0.39866
10309	0.97000	970.00	0.39362
10256	0.97500	975.00	0.38801
10204	0.98000	980.00	0.38252
10152	0.98500	985.00	0.37826
10101	0.99000	990.00	0.37208
10050	0.99500	995.00	0.36751
10000	1.0000	1000.0	0.36288
9950.2	1.0050	1005.0	0.35798
9901.0	1.0100	1010.0	0.35411
9852.2	1.0150	1015.0	0.35000
9803.9	1.0200	1020.0	0.34662
9756.1	1.0250	1025.0	0.34364
9708.7	1.0300	1030.0	0.34017
9661.8	1.0350	1035.0	0.33843
9615.4	1.0400	1040.0	0.33647
9569.4	1.0450	1045.0	0.33544
9523.8	1.0500	1050.0	0.33359
9478.7	1.0550	1055.0	0.33325
9434.0	1.0600	1060.0	0.33322
9389.7	1.0650	1065.0	0.33328
9345.8	1.0700	1070.0	0.33397
9302.3	1.0750	1075.0	0.33526
9259.3	1.0800	1080.0	0.33647
9216.6	1.0850	1085.0	0.33825
9174.3	1.0900	1090.0	0.34079
9132.4	1.0950	1095.0	0.34377
9090.9	1.1000	1100.0	0.34644
9049.8	1.1050	1105.0	0.34970
9009.0	1.1100	1110.0	0.35330
8968.6	1.1150	1115.0	0.35689
8928.6	1.1200	1120.0	0.36122
8888.9	1.1250	1125.0	0.36433
8849.6	1.1300	1130.0	0.36754
8810.6	1.1350	1135.0	0.37171
8771.9	1.1400	1140.0	0.37529
8733.6	1.1450	1145.0	0.37825
8695.7	1.1500	1150.0	0.38126
8658.0	1.1550	1155.0	0.38440
8620.7	1.1600	1160.0	0.38781
8583.7	1.1650	1165.0	0.39059
8547.0	1.1700	1170.0	0.39272
8510.6	1.1750	1175.0	0.39475
8474.6	1.1800	1180.0	0.39697
8438.8	1.1850	1185.0	0.39890
8403.4	1.1900	1190.0	0.40083
8368.2	1.1950	1195.0	0.40247
8333.3	1.2000	1200.0	0.40440
8298.8	1.2050	1205.0	0.40481
8264.5	1.2100	1210.0	0.40636
8230.5	1.2150	1215.0	0.40831
8196.7	1.2200	1220.0	0.40958
8163.3	1.2250	1225.0	0.41079
8130.1	1.2300	1230.0	0.41259
8097.2	1.2350	1235.0	0.41417
8064.5	1.2400	1240.0	0.41590
8032.1	1.2450	1245.0	0.41790
8000.0	1.2500	1250.0	0.41887
7968.1	1.2550	1255.0	0.42029
7936.5	1.2600	1260.0	0.42232
7905.1	1.2650	1265.0	0.42455
7874.0	1.2700	1270.0	0.42654
7843.1	1.2750	1275.0	0.42878
7812.5	1.2800	1280.0	0.43050
7782.1	1.2850	1285.0	0.43356
7751.9	1.2900	1290.0	0.43583
7722.0	1.2950	1295.0	0.43870
7692.3	1.3000	1300.0	0.44118
7662.8	1.3050	1305.0	0.44327
7633.6	1.3100	1310.0	0.44594
7604.6	1.3150	1315.0	0.44930
7575.8	1.3200	1320.0	0.45269
7547.2	1.3250	1325.0	0.45612
7518.8	1.3300	1330.0	0.45975
7490.6	1.3350	1335.0	0.46281
7462.7	1.3400	1340.0	0.46738
7434.9	1.3450	1345.0	0.47061
7407.4	1.3500	1350.0	0.47512
7380.1	1.3550	1355.0	0.48008
7352.9	1.3600	1360.0	0.48513
7326.0	1.3650	1365.0	0.49062
7299.3	1.3700	1370.0	0.49433
7272.7	1.3750	1375.0	0.49859
7246.4	1.3800	1380.0	0.50206
7220.2	1.3850	1385.0	0.51047
7194.2	1.3900	1390.0	0.51351
7168.5	1.3950	1395.0	0.51823
7142.9	1.4000	1400.0	0.52277
7117.4	1.4050	1405.0	0.52776
7092.2	1.4100	1410.0	0.53399
7067.1	1.4150	1415.0	0.53817
7042.3	1.4200	1420.0	0.54349
7017.5	1.4250	1425.0	0.54939
6993.0	1.4300	1430.0	0.55470
6968.6	1.4350	1435.0	0.56130
6944.4	1.4400	1440.0	0.56683
6920.4	1.4450	1445.0	0.57184
6896.6	1.4500	1450.0	0.57752
6872.9	1.4550	1455.0	0.58314
6849.3	1.4600	1460.0	0.58859
6825.9	1.4650	1465.0	0.59469
6802.7	1.4700	1470.0	0.60025
6779.7	1.4750	1475.0	0.60642
6756.8	1.4800	1480.0	0.61194
6734.0	1.4850	1485.0	0.61860
6711.4	1.4900	1490.0	0.62361
6689.0	1.4950	1495.0	0.62990
6666.7	1.5000	1500.0	0.63539
6644.5	1.5050	1505.0	0.64138
6622.5	1.5100	1510.0	0.64733
6600.7	1.5150	1515.0	0.65338
6578.9	1.5200	1520.0	0.65918
6557.4	1.5250	1525.0	0.66471
6535.9	1.5300	1530.0	0.67051
6514.7	1.5350	1535.0	0.67653
6493.5	1.5400	1540.0	0.68185
6472.5	1.5450	1545.0	0.68767
6451.6	1.5500	1550.0	0.69339
6430.9	1.5550	1555.0	0.70042
6410.3	1.5600	1560.0	0.70553
6389.8	1.5650	1565.0	0.71058
6369.4	1.5700	1570.0	0.71552
6349.2	1.5750	1575.0	0.72125
6329.1	1.5800	1580.0	0.72630
6309.1	1.5850	1585.0	0.72994
6289.3	1.5900	1590.0	0.73522
6269.6	1.5950	1595.0	0.74088
6250.0	1.6000	1600.0	0.74522
6230.5	1.6050	1605.0	0.75048
6211.2	1.6100	1610.0	0.75430
6192.0	1.6150	1615.0	0.75918
6172.8	1.6200	1620.0	0.76296
6153.8	1.6250	1625.0	0.76744
6135.0	1.6300	1630.0	0.77042
6116.2	1.6350	1635.0	0.77481
6097.6	1.6400	1640.0	0.77815
6079.0	1.6450	1645.0	0.78194
6060.6	1.6500	1650.0	0.78549
6042.3	1.6550	1655.0	0.78943
6024.1	1.6600	1660.0	0.79209
6006.0	1.6650	1665.0	0.79838
5988.0	1.6700	1670.0	0.80067
5970.1	1.6750	1675.0	0.80518
5952.4	1.6800	1680.0	0.80750
5934.7	1.6850	1685.0	0.80843
5917.2	1.6900	1690.0	0.81185
5899.7	1.6950	1695.0	0.81465
5882.4	1.7000	1700.0	0.81572
5865.1	1.7050	1705.0	0.81933
5848.0	1.7100	1710.0	0.82184
5830.9	1.7150	1715.0	0.82347
5814.0	1.7200	1720.0	0.82607
5797.1	1.7250	1725.0	0.82759
5780.3	1.7300	1730.0	0.83013
5763.7	1.7350	1735.0	0.83167
5747.1	1.7400	1740.0	0.83351
5730.7	1.7450	1745.0	0.83421
5714.3	1.7500	1750.0	0.83623
5698.0	1.7550	1755.0	0.83796
5681.8	1.7600	1760.0	0.83930
5665.7	1.7650	1765.0	0.83972
5649.7	1.7700	1770.0	0.84075
5633.8	1.7750	1775.0	0.84168
5618.0	1.7800	1780.0	0.84196
5602.2	1.7850	1785.0	0.84328
5586.6	1.7900	1790.0	0.84484
5571.0	1.7950	1795.0	0.84505
5555.6	1.8000	1800.0	0.84503
5552.2	1.8011	1801.1	0.84535
5550.3	1.8017	1801.7	0.84518
5548.5	1.8023	1802.3	0.84519
5546.6	1.8029	1802.9	0.84521
5544.5	1.8036	1803.6	0.84523
5542.6	1.8042	1804.2	0.84526
5540.8	1.8048	1804.8	0.84561
5538.6	1.8055	1805.5	0.84565
5536.8	1.8061	1806.1	0.84578
5535.0	1.8067	1806.7	0.84573
5533.1	1.8073	1807.3	0.84569
5531.0	1.8080	1808.0	0.84577
5529.1	1.8086	1808.6	0.84590
5527.3	1.8092	1809.2	0.84583
5525.2	1.8099	1809.9	0.84598
5523.3	1.8105	1810.5	0.84597
5521.5	1.8111	1811.1	0.84589
5519.4	1.8118	1811.8	0.84600
5517.5	1.8124	1812.4	0.84632
5515.7	1.8130	1813.0	0.84635
5513.6	1.8137	1813.7	0.84621
5511.8	1.8143	1814.3	0.84619
5509.9	1.8149	1814.9	0.84644
5507.8	1.8156	1815.6	0.84637
5506.0	1.8162	1816.2	0.84635
5504.2	1.8168	1816.8	0.84648
5502.1	1.8175	1817.5	0.84654
5500.2	1.8181	1818.1	0.84645
5498.1	1.8188	1818.8	0.84654
5496.3	1.8194	1819.4	0.84662
5494.5	1.8200	1820.0	0.84672
5492.4	1.8207	1820.7	0.84665
5490.6	1.8213	1821.3	0.84674
5488.8	1.8219	1821.9	0.84681
5486.7	1.8226	1822.6	0.84684
5484.9	1.8232	1823.2	0.84674
5482.8	1.8239	1823.9	0.84671
5481.0	1.8245	1824.5	0.84686
5478.9	1.8252	1825.2	0.84720
5477.1	1.8258	1825.8	0.84741
5475.3	1.8264	1826.4	0.84760
5473.2	1.8271	1827.1	0.84734
5471.4	1.8277	1827.7	0.84728
5469.3	1.8284	1828.4	0.84734
5467.5	1.8290	1829.0	0.84737
5465.4	1.8297	1829.7	0.84713
5463.6	1.8303	1830.3	0.84706
5461.5	1.8310	1831.0	0.84718
5459.7	1.8316	1831.6	0.84753
5457.6	1.8323	1832.3	0.84753
5455.8	1.8329	1832.9	0.84748
5453.8	1.8336	1833.6	0.84731
5452.0	1.8342	1834.2	0.84759
5450.2	1.8348	1834.8	0.84785
5448.1	1.8355	1835.5	0.84783
5446.0	1.8362	1836.2	0.84789
5444.3	1.8368	1836.8	0.84788
5442.5	1.8374	1837.4	0.84783
5440.4	1.8381	1838.1	0.84798
5438.3	1.8388	1838.8	0.84799
5436.6	1.8394	1839.4	0.84816
5434.5	1.8401	1840.1	0.84825
5432.7	1.8407	1840.7	0.84811
5430.7	1.8414	1841.4	0.84784
5428.9	1.8420	1842.0	0.84800
5426.8	1.8427	1842.7	0.84805
5425.1	1.8433	1843.3	0.84808
5423.0	1.8440	1844.0	0.84792
5421.2	1.8446	1844.6	0.84803
5419.2	1.8453	1845.3	0.84826
5417.4	1.8459	1845.9	0.84851
5415.4	1.8466	1846.6	0.84864
5413.3	1.8473	1847.3	0.84870
5411.5	1.8479	1847.9	0.84846
5409.5	1.8486	1848.6	0.84833
5407.7	1.8492	1849.2	0.84825
5405.7	1.8499	1849.9	0.84841
5403.7	1.8506	1850.6	0.84863
5401.9	1.8512	1851.2	0.84874
5399.9	1.8519	1851.9	0.84851
5397.8	1.8526	1852.6	0.84856
5396.1	1.8532	1853.2	0.84858
5394.0	1.8539	1853.9	0.84868
5392.3	1.8545	1854.5	0.84866
5390.3	1.8552	1855.2	0.84856
5388.2	1.8559	1855.9	0.84865
5386.5	1.8565	1856.5	0.84893
5384.4	1.8572	1857.2	0.84891
5382.4	1.8579	1857.9	0.84886
5380.7	1.8585	1858.5	0.84880
5378.7	1.8592	1859.2	0.84898
5376.6	1.8599	1859.9	0.84911
5374.9	1.8605	1860.5	0.84899
5372.9	1.8612	1861.2	0.84904
5370.9	1.8619	1861.9	0.84907
5369.1	1.8625	1862.5	0.84908
5367.1	1.8632	1863.2	0.84907
5365.1	1.8639	1863.9	0.84903
5363.4	1.8645	1864.5	0.84911
5361.4	1.8652	1865.2	0.84924
5359.3	1.8659	1865.9	0.84928
5357.3	1.8666	1866.6	0.84916
5355.6	1.8672	1867.2	0.84926
5353.6	1.8679	1867.9	0.84940
5351.6	1.8686	1868.6	0.84939
5349.6	1.8693	1869.3	0.84932
5347.9	1.8699	1869.9	0.84956
5345.9	1.8706	1870.6	0.84959
5343.9	1.8713	1871.3	0.84959
5342.2	1.8719	1871.9	0.84950
5340.2	1.8726	1872.6	0.84952
5338.2	1.8733	1873.3	0.84972
5336.2	1.8740	1874.0	0.84982
5334.2	1.8747	1874.7	0.84970
5332.5	1.8753	1875.3	0.84971
5330.5	1.8760	1876.0	0.84967
5328.5	1.8767	1876.7	0.84966
5326.5	1.8774	1877.4	0.84979
5324.5	1.8781	1878.1	0.84976
5322.8	1.8787	1878.7	0.84972
5320.8	1.8794	1879.4	0.84972
5318.9	1.8801	1880.1	0.84964
5316.9	1.8808	1880.8	0.84967
5314.9	1.8815	1881.5	0.84962
5313.2	1.8821	1882.1	0.84973
5311.2	1.8828	1882.8	0.84982
5309.3	1.8835	1883.5	0.84994
5307.3	1.8842	1884.2	0.84999
5305.3	1.8849	1884.9	0.84987
5303.4	1.8856	1885.6	0.84974
5301.4	1.8863	1886.3	0.84975
5299.7	1.8869	1886.9	0.84973
5297.7	1.8876	1887.6	0.84969
5295.8	1.8883	1888.3	0.84969
5293.8	1.8890	1889.0	0.84979
5291.8	1.8897	1889.7	0.84970
5289.9	1.8904	1890.4	0.84994
5287.9	1.8911	1891.1	0.84992
5286.0	1.8918	1891.8	0.84988
5284.3	1.8924	1892.4	0.84982
5282.3	1.8931	1893.1	0.84999
5280.4	1.8938	1893.8	0.85009
5278.4	1.8945	1894.5	0.85006
5276.5	1.8952	1895.2	0.85004
5274.5	1.8959	1895.9	0.85007
5272.6	1.8966	1896.6	0.84996
5270.6	1.8973	1897.3	0.85002
5268.7	1.8980	1898.0	0.85013
5266.8	1.8987	1898.7	0.85017
5264.8	1.8994	1899.4	0.85019
5262.9	1.9001	1900.1	0.85020
5260.9	1.9008	1900.8	0.84994
5259.0	1.9015	1901.5	0.84991
5257.1	1.9022	1902.2	0.85011
5255.1	1.9029	1902.9	0.85007
5253.2	1.9036	1903.6	0.85001
5251.3	1.9043	1904.3	0.85006
5249.3	1.9050	1905.0	0.85009
5247.4	1.9057	1905.7	0.85020
5245.5	1.9064	1906.4	0.85030
5243.6	1.9071	1907.1	0.85029
5241.6	1.9078	1907.8	0.85008
5239.7	1.9085	1908.5	0.85017
5237.8	1.9092	1909.2	0.85014
5235.9	1.9099	1909.9	0.85004
5234.0	1.9106	1910.6	0.85015
5232.0	1.9113	1911.3	0.85039
5230.1	1.9120	1912.0	0.85028
5228.2	1.9127	1912.7	0.85022
5226.3	1.9134	1913.4	0.85047
5224.4	1.9141	1914.1	0.85055
5222.5	1.9148	1914.8	0.85047
5220.6	1.9155	1915.5	0.85049
5218.7	1.9162	1916.2	0.85048
5216.8	1.9169	1916.9	0.85051
5214.9	1.9176	1917.6	0.85045
5212.9	1.9183	1918.3	0.85039
5210.8	1.9191	1919.1	0.85038
5208.9	1.9198	1919.8	0.85061
5207.0	1.9205	1920.5	0.85068
5205.1	1.9212	1921.2	0.85065
5203.2	1.9219	1921.9	0.85055
5201.3	1.9226	1922.6	0.85047
5199.4	1.9233	1923.3	0.85030
5197.2	1.9241	1924.1	0.85051
5195.3	1.9248	1924.8	0.85077
5193.5	1.9255	1925.5	0.85091
5191.6	1.9262	1926.2	0.85093
5189.7	1.9269	1926.9	0.85092
5187.8	1.9276	1927.6	0.85075
5185.9	1.9283	1928.3	0.85080
5183.8	1.9291	1929.1	0.85085
5181.9	1.9298	1929.8	0.85084
5180.0	1.9305	1930.5	0.85088
5178.1	1.9312	1931.2	0.85086
5176.3	1.9319	1931.9	0.85085
5174.1	1.9327	1932.7	0.85093
5172.2	1.9334	1933.4	0.85119
5170.4	1.9341	1934.1	0.85143
5168.5	1.9348	1934.8	0.85137
5166.6	1.9355	1935.5	0.85125
5164.5	1.9363	1936.3	0.85128
5162.6	1.9370	1937.0	0.85131
5160.8	1.9377	1937.7	0.85129
5158.9	1.9384	1938.4	0.85135
5156.8	1.9392	1939.2	0.85129
5154.9	1.9399	1939.9	0.85125
5153.0	1.9406	1940.6	0.85142
5151.2	1.9413	1941.3	0.85150
5149.1	1.9421	1942.1	0.85148
5147.2	1.9428	1942.8	0.85155
5145.4	1.9435	1943.5	0.85144
5143.2	1.9443	1944.3	0.85155
5141.4	1.9450	1945.0	0.85139
5139.5	1.9457	1945.7	0.85136
5137.7	1.9464	1946.4	0.85154
5135.6	1.9472	1947.2	0.85166
5133.7	1.9479	1947.9	0.85161
5131.9	1.9486	1948.6	0.85169
5129.8	1.9494	1949.4	0.85182
5127.9	1.9501	1950.1	0.85176
5126.1	1.9508	1950.8	0.85168
5124.0	1.9516	1951.6	0.85174
5122.2	1.9523	1952.3	0.85186
5120.3	1.9530	1953.0	0.85196
5118.2	1.9538	1953.8	0.85191
5116.4	1.9545	1954.5	0.85180
5114.3	1.9553	1955.3	0.85179
5112.5	1.9560	1956.0	0.85192
5110.6	1.9567	1956.7	0.85207
5108.6	1.9575	1957.5	0.85227
5106.7	1.9582	1958.2	0.85220
5104.9	1.9589	1958.9	0.85212
5102.8	1.9597	1959.7	0.85219
5101.0	1.9604	1960.4	0.85224
5098.9	1.9612	1961.2	0.85205
5097.1	1.9619	1961.9	0.85209
5095.0	1.9627	1962.7	0.85234
5093.2	1.9634	1963.4	0.85239
5091.4	1.9641	1964.1	0.85226
5089.3	1.9649	1964.9	0.85236
5087.5	1.9656	1965.6	0.85246
5085.4	1.9664	1966.4	0.85266
5083.6	1.9671	1967.1	0.85266
5081.6	1.9679	1967.9	0.85257
5079.8	1.9686	1968.6	0.85269
5077.7	1.9694	1969.4	0.85275
5075.9	1.9701	1970.1	0.85261
5074.1	1.9708	1970.8	0.85261
5072.0	1.9716	1971.6	0.85257
5070.2	1.9723	1972.3	0.85272
5068.2	1.9731	1973.1	0.85300
5066.4	1.9738	1973.8	0.85295
5064.3	1.9746	1974.6	0.85277
5062.3	1.9754	1975.4	0.85288
5060.5	1.9761	1976.1	0.85307
5058.4	1.9769	1976.9	0.85310
5056.6	1.9776	1977.6	0.85298
5054.6	1.9784	1978.4	0.85297
5052.8	1.9791	1979.1	0.85301
5050.8	1.9799	1979.9	0.85301
5049.0	1.9806	1980.6	0.85300
5046.9	1.9814	1981.4	0.85317
5044.9	1.9822	1982.2	0.85327
5043.1	1.9829	1982.9	0.85329
5041.1	1.9837	1983.7	0.85322
5039.3	1.9844	1984.4	0.85320
5037.3	1.9852	1985.2	0.85325
5035.5	1.9859	1985.9	0.85339
5033.5	1.9867	1986.7	0.85348
5031.4	1.9875	1987.5	0.85351
5029.7	1.9882	1988.2	0.85350
5027.7	1.9890	1989.0	0.85357
5025.6	1.9898	1989.8	0.85360
5023.9	1.9905	1990.5	0.85363
5021.8	1.9913	1991.3	0.85367
5019.8	1.9921	1992.1	0.85355
5018.1	1.9928	1992.8	0.85370
5016.1	1.9936	1993.6	0.85385
5014.3	1.9943	1994.3	0.85383
5012.3	1.9951	1995.1	0.85402
5010.3	1.9959	1995.9	0.85393
5008.3	1.9967	1996.7	0.85388
5006.5	1.9974	1997.4	0.85380
5004.5	1.9982	1998.2	0.85388
5002.5	1.9990	1999.0	0.85400
5000.7	1.9997	1999.7	0.85389
4998.8	2.0005	2000.5	0.85381
4996.8	2.0013	2001.3	0.85400
4994.8	2.0021	2002.1	0.85417
4993.0	2.0028	2002.8	0.85422
4991.0	2.0036	2003.6	0.85428
4989.0	2.0044	2004.4	0.85437
4987.0	2.0052	2005.2	0.85431
4985.3	2.0059	2005.9	0.85428
4983.3	2.0067	2006.7	0.85429
4981.3	2.0075	2007.5	0.85427
4979.3	2.0083	2008.3	0.85429
4977.6	2.0090	2009.0	0.85455
4975.6	2.0098	2009.8	0.85466
4973.6	2.0106	2010.6	0.85462
4971.7	2.0114	2011.4	0.85456
4969.7	2.0122	2012.2	0.85470
4968.0	2.0129	2012.9	0.85483
4966.0	2.0137	2013.7	0.85479
4964.0	2.0145	2014.5	0.85474
4962.0	2.0153	2015.3	0.85487
4960.1	2.0161	2016.1	0.85494
4958.3	2.0168	2016.8	0.85504
4956.4	2.0176	2017.6	0.85507
4954.4	2.0184	2018.4	0.85514
4952.5	2.0192	2019.2	0.85508
4950.5	2.0200	2020.0	0.85505
4948.5	2.0208	2020.8	0.85509
4946.6	2.0216	2021.6	0.85524
4944.6	2.0224	2022.4	0.85521
4942.7	2.0232	2023.2	0.85526
4941.0	2.0239	2023.9	0.85529
4939.0	2.0247	2024.7	0.85539
4937.1	2.0255	2025.5	0.85540
4935.1	2.0263	2026.3	0.85530
4933.2	2.0271	2027.1	0.85525
4931.2	2.0279	2027.9	0.85540
4929.3	2.0287	2028.7	0.85548
4927.3	2.0295	2029.5	0.85545
4925.4	2.0303	2030.3	0.85557
4923.4	2.0311	2031.1	0.85579
4921.5	2.0319	2031.9	0.85581
4919.6	2.0327	2032.7	0.85589
4917.6	2.0335	2033.5	0.85600
4915.7	2.0343	2034.3	0.85603
4913.8	2.0351	2035.1	0.85595
4911.8	2.0359	2035.9	0.85587
4909.9	2.0367	2036.7	0.85585
4908.0	2.0375	2037.5	0.85604
4906.0	2.0383	2038.3	0.85607
4904.1	2.0391	2039.1	0.85609
4902.2	2.0399	2039.9	0.85614
4900.3	2.0407	2040.7	0.85615
4898.4	2.0415	2041.5	0.85615
4896.4	2.0423	2042.3	0.85617
4894.5	2.0431	2043.1	0.85613
4892.6	2.0439	2043.9	0.85632
4890.7	2.0447	2044.7	0.85644
4888.8	2.0455	2045.5	0.85648
4886.9	2.0463	2046.3	0.85662
4885.0	2.0471	2047.1	0.85683
4883.1	2.0479	2047.9	0.85669
4881.1	2.0487	2048.7	0.85662
4879.2	2.0495	2049.5	0.85657
4877.1	2.0504	2050.4	0.85668
4875.2	2.0512	2051.2	0.85678
4873.3	2.0520	2052.0	0.85677
4871.4	2.0528	2052.8	0.85688
4869.5	2.0536	2053.6	0.85687
4867.6	2.0544	2054.4	0.85682
4865.7	2.0552	2055.2	0.85693
4863.8	2.0560	2056.0	0.85693
4861.7	2.0569	2056.9	0.85704
4859.8	2.0577	2057.7	0.85728
4857.9	2.0585	2058.5	0.85734
4856.0	2.0593	2059.3	0.85716
4854.1	2.0601	2060.1	0.85729
4852.2	2.0609	2060.9	0.85734
4850.1	2.0618	2061.8	0.85735
4848.2	2.0626	2062.6	0.85727
4846.4	2.0634	2063.4	0.85743
4844.5	2.0642	2064.2	0.85757
4842.4	2.0651	2065.1	0.85747
4840.5	2.0659	2065.9	0.85749
4838.6	2.0667	2066.7	0.85780
4836.8	2.0675	2067.5	0.85785
4834.9	2.0683	2068.3	0.85782
4832.8	2.0692	2069.2	0.85783
4830.9	2.0700	2070.0	0.85801
4829.1	2.0708	2070.8	0.85794
4827.2	2.0716	2071.6	0.85800
4825.1	2.0725	2072.5	0.85811
4823.2	2.0733	2073.3	0.85821
4821.4	2.0741	2074.1	0.85825
4819.3	2.0750	2075.0	0.85827
4817.4	2.0758	2075.8	0.85818
4815.6	2.0766	2076.6	0.85812
4813.5	2.0775	2077.5	0.85811
4811.6	2.0783	2078.3	0.85821
4809.8	2.0791	2079.1	0.85817
4807.7	2.0800	2080.0	0.85832
4805.8	2.0808	2080.8	0.85843
4804.0	2.0816	2081.6	0.85860
4801.9	2.0825	2082.5	0.85873
4800.1	2.0833	2083.3	0.85874
4798.2	2.0841	2084.1	0.85869
4796.2	2.0850	2085.0	0.85868
4794.3	2.0858	2085.8	0.85876
4792.3	2.0867	2086.7	0.85890
4790.4	2.0875	2087.5	0.85887
4788.6	2.0883	2088.3	0.85889
4786.5	2.0892	2089.2	0.85894
4784.7	2.0900	2090.0	0.85892
4782.6	2.0909	2090.9	0.85890
4780.8	2.0917	2091.7	0.85899
4778.7	2.0926	2092.6	0.85903
4776.9	2.0934	2093.4	0.85890
4775.1	2.0942	2094.2	0.85884
4773.0	2.0951	2095.1	0.85896
4771.2	2.0959	2095.9	0.85907
4769.2	2.0968	2096.8	0.85919
4767.4	2.0976	2097.6	0.85929
4765.3	2.0985	2098.5	0.85932
4763.5	2.0993	2099.3	0.85918
4761.5	2.1002	2100.2	0.85924
4759.6	2.1010	2101.0	0.85932
4757.6	2.1019	2101.9	0.85950
4755.8	2.1027	2102.7	0.85966
4753.8	2.1036	2103.6	0.85963
4751.9	2.1044	2104.4	0.85975
4749.9	2.1053	2105.3	0.85998
4748.1	2.1061	2106.1	0.85997
4746.1	2.1070	2107.0	0.85987
4744.1	2.1079	2107.9	0.85992
4742.3	2.1087	2108.7	0.85997
4740.2	2.1096	2109.6	0.85989
4738.4	2.1104	2110.4	0.86007
4736.4	2.1113	2111.3	0.86012
4734.4	2.1122	2112.2	0.86020
4732.6	2.1130	2113.0	0.86028
4730.6	2.1139	2113.9	0.86031
4728.8	2.1147	2114.7	0.86024
4726.8	2.1156	2115.6	0.86040
4724.8	2.1165	2116.5	0.86058
4723.0	2.1173	2117.3	0.86072
4721.0	2.1182	2118.2	0.86068
4719.0	2.1191	2119.1	0.86069
4717.2	2.1199	2119.9	0.86067
4715.2	2.1208	2120.8	0.86054
4713.2	2.1217	2121.7	0.86061
4711.4	2.1225	2122.5	0.86074
4709.4	2.1234	2123.4	0.86059
4707.4	2.1243	2124.3	0.86059
4705.7	2.1251	2125.1	0.86062
4703.7	2.1260	2126.0	0.86073
4701.7	2.1269	2126.9	0.86081
4699.7	2.1278	2127.8	0.86080
4697.9	2.1286	2128.6	0.86072
4695.9	2.1295	2129.5	0.86082
4694.0	2.1304	2130.4	0.86106
4692.0	2.1313	2131.3	0.86121
4690.2	2.1321	2132.1	0.86115
4688.2	2.1330	2133.0	0.86130
4686.3	2.1339	2133.9	0.86136
4684.3	2.1348	2134.8	0.86137
4682.5	2.1356	2135.6	0.86135
4680.6	2.1365	2136.5	0.86140
4678.6	2.1374	2137.4	0.86126
4676.6	2.1383	2138.3	0.86128
4674.6	2.1392	2139.2	0.86148
4672.7	2.1401	2140.1	0.86153
4670.9	2.1409	2140.9	0.86146
4669.0	2.1418	2141.8	0.86160
4667.0	2.1427	2142.7	0.86163
4665.0	2.1436	2143.6	0.86174
4663.1	2.1445	2144.5	0.86189
4661.1	2.1454	2145.4	0.86191
4659.2	2.1463	2146.3	0.86188
4657.4	2.1471	2147.1	0.86189
4655.5	2.1480	2148.0	0.86190
4653.5	2.1489	2148.9	0.86212
4651.6	2.1498	2149.8	0.86220
4649.6	2.1507	2150.7	0.86227
4647.7	2.1516	2151.6	0.86222
4645.8	2.1525	2152.5	0.86220
4643.8	2.1534	2153.4	0.86236
4641.9	2.1543	2154.3	0.86241
4639.9	2.1552	2155.2	0.86229
4638.0	2.1561	2156.1	0.86223
4636.1	2.1570	2157.0	0.86215
4634.1	2.1579	2157.9	0.86226
4632.2	2.1588	2158.8	0.86236
4630.3	2.1597	2159.7	0.86233
4628.3	2.1606	2160.6	0.86233
4626.4	2.1615	2161.5	0.86240
4624.5	2.1624	2162.4	0.86239
4622.6	2.1633	2163.3	0.86245
4620.6	2.1642	2164.2	0.86252
4618.7	2.1651	2165.1	0.86261
4616.8	2.1660	2166.0	0.86263
4614.9	2.1669	2166.9	0.86263
4613.0	2.1678	2167.8	0.86264
4611.1	2.1687	2168.7	0.86265
4609.1	2.1696	2169.6	0.86269
4607.2	2.1705	2170.5	0.86272
4605.3	2.1714	2171.4	0.86276
4603.4	2.1723	2172.3	0.86288
4601.3	2.1733	2173.3	0.86286
4599.4	2.1742	2174.2	0.86288
4597.5	2.1751	2175.1	0.86295
4595.6	2.1760	2176.0	0.86291
4593.7	2.1769	2176.9	0.86293
4591.8	2.1778	2177.8	0.86311
4589.9	2.1787	2178.7	0.86306
4588.0	2.1796	2179.6	0.86306
4585.9	2.1806	2180.6	0.86308
4584.0	2.1815	2181.5	0.86311
4582.1	2.1824	2182.4	0.86312
4580.2	2.1833	2183.3	0.86324
4578.3	2.1842	2184.2	0.86319
4576.4	2.1851	2185.1	0.86315
4574.4	2.1861	2186.1	0.86329
4572.5	2.1870	2187.0	0.86346
4570.6	2.1879	2187.9	0.86343
4568.7	2.1888	2188.8	0.86340
4566.6	2.1898	2189.8	0.86338
4564.8	2.1907	2190.7	0.86348
4562.9	2.1916	2191.6	0.86356
4560.8	2.1926	2192.6	0.86358
4558.9	2.1935	2193.5	0.86357
4557.1	2.1944	2194.4	0.86366
4555.2	2.1953	2195.3	0.86374
4553.1	2.1963	2196.3	0.86371
4551.2	2.1972	2197.2	0.86349
4549.4	2.1981	2198.1	0.86348
4547.3	2.1991	2199.1	0.86353
4545.5	2.2000	2200.0	0.86359
4543.6	2.2009	2200.9	0.86360
4541.5	2.2019	2201.9	0.86370
4539.7	2.2028	2202.8	0.86371
4537.8	2.2037	2203.7	0.86363
4535.8	2.2047	2204.7	0.86365
4533.9	2.2056	2205.6	0.86379
4532.1	2.2065	2206.5	0.86378
4530.0	2.2075	2207.5	0.86383
4528.2	2.2084	2208.4	0.86385
4526.1	2.2094	2209.4	0.86395
4524.3	2.2103	2210.3	0.86396
4522.2	2.2113	2211.3	0.86393
4520.4	2.2122	2212.2	0.86385
4518.5	2.2131	2213.1	0.86376
4516.5	2.2141	2214.1	0.86379
4514.7	2.2150	2215.0	0.86403
4512.6	2.2160	2216.0	0.86409
4510.8	2.2169	2216.9	0.86411
4508.8	2.2179	2217.9	0.86410
4506.9	2.2188	2218.8	0.86420
4504.9	2.2198	2219.8	0.86422
4503.1	2.2207	2220.7	0.86417
4501.1	2.2217	2221.7	0.86415
4499.2	2.2226	2222.6	0.86424
4497.2	2.2236	2223.6	0.86419
4495.4	2.2245	2224.5	0.86429
4493.4	2.2255	2225.5	0.86437
4491.6	2.2264	2226.4	0.86439
4489.5	2.2274	2227.4	0.86446
4487.5	2.2284	2228.4	0.86445
4485.7	2.2293	2229.3	0.86443
4483.7	2.2303	2230.3	0.86448
4481.9	2.2312	2231.2	0.86434
4479.9	2.2322	2232.2	0.86432
4478.1	2.2331	2233.1	0.86442
4476.1	2.2341	2234.1	0.86451
4474.1	2.2351	2235.1	0.86451
4472.3	2.2360	2236.0	0.86450
4470.3	2.2370	2237.0	0.86436
4468.3	2.2380	2238.0	0.86442
4466.5	2.2389	2238.9	0.86458
4464.5	2.2399	2239.9	0.86459
4462.5	2.2409	2240.9	0.86441
4460.7	2.2418	2241.8	0.86449
4458.7	2.2428	2242.8	0.86458
4456.7	2.2438	2243.8	0.86466
4454.7	2.2448	2244.8	0.86465
4453.0	2.2457	2245.7	0.86461
4451.0	2.2467	2246.7	0.86460
4449.0	2.2477	2247.7	0.86471
4447.2	2.2486	2248.6	0.86475
4445.2	2.2496	2249.6	0.86474
4443.3	2.2506	2250.6	0.86477
4441.3	2.2516	2251.6	0.86483
4439.3	2.2526	2252.6	0.86473
4437.5	2.2535	2253.5	0.86460
4435.6	2.2545	2254.5	0.86460
4433.6	2.2555	2255.5	0.86464
4431.6	2.2565	2256.5	0.86459
4429.7	2.2575	2257.5	0.86465
4427.9	2.2584	2258.4	0.86468
4426.0	2.2594	2259.4	0.86470
4424.0	2.2604	2260.4	0.86468
4422.0	2.2614	2261.4	0.86463
4420.1	2.2624	2262.4	0.86452
4418.1	2.2634	2263.4	0.86455
4416.2	2.2644	2264.4	0.86462
4414.2	2.2654	2265.4	0.86477
4412.5	2.2663	2266.3	0.86482
4410.5	2.2673	2267.3	0.86485
4408.6	2.2683	2268.3	0.86475
4406.6	2.2693	2269.3	0.86475
4404.7	2.2703	2270.3	0.86482
4402.8	2.2713	2271.3	0.86477
4400.8	2.2723	2272.3	0.86470
4398.9	2.2733	2273.3	0.86483
4397.0	2.2743	2274.3	0.86479
4395.0	2.2753	2275.3	0.86482
4393.1	2.2763	2276.3	0.86487
4391.2	2.2773	2277.3	0.86479
4389.2	2.2783	2278.3	0.86463
4387.3	2.2793	2279.3	0.86479
4385.4	2.2803	2280.3	0.86482
4383.5	2.2813	2281.3	0.86480
4381.5	2.2823	2282.3	0.86484
4379.6	2.2833	2283.3	0.86496
4377.7	2.2843	2284.3	0.86496
4375.8	2.2853	2285.3	0.86504
4373.9	2.2863	2286.3	0.86495
4372.0	2.2873	2287.3	0.86493
4369.9	2.2884	2288.4	0.86500
4368.0	2.2894	2289.4	0.86500
4366.0	2.2904	2290.4	0.86496
4364.1	2.2914	2291.4	0.86499
4362.2	2.2924	2292.4	0.86502
4360.3	2.2934	2293.4	0.86509
4358.4	2.2944	2294.4	0.86506
4356.5	2.2954	2295.4	0.86500
4354.5	2.2965	2296.5	0.86494
4352.6	2.2975	2297.5	0.86506
4350.7	2.2985	2298.5	0.86502
4348.8	2.2995	2299.5	0.86487
4346.9	2.3005	2300.5	0.86484
4344.8	2.3016	2301.6	0.86484
4342.9	2.3026	2302.6	0.86477
4341.0	2.3036	2303.6	0.86485
4339.1	2.3046	2304.6	0.86477
4337.3	2.3056	2305.6	0.86473
4335.2	2.3067	2306.7	0.86475
4333.3	2.3077	2307.7	0.86472
4331.4	2.3087	2308.7	0.86463
4329.4	2.3098	2309.8	0.86467
4327.5	2.3108	2310.8	0.86473
4325.6	2.3118	2311.8	0.86488
4323.6	2.3129	2312.9	0.86503
4321.7	2.3139	2313.9	0.86513
4319.8	2.3149	2314.9	0.86512
4318.0	2.3159	2315.9	0.86516
4315.9	2.3170	2317.0	0.86518
4314.1	2.3180	2318.0	0.86529
4312.0	2.3191	2319.1	0.86538
4310.2	2.3201	2320.1	0.86549
4308.3	2.3211	2321.1	0.86551
4306.3	2.3222	2322.2	0.86550
4304.4	2.3232	2323.2	0.86545
4302.4	2.3243	2324.3	0.86564
4300.5	2.3253	2325.3	0.86569
4298.7	2.3263	2326.3	0.86565
4296.6	2.3274	2327.4	0.86570
4294.8	2.3284	2328.4	0.86573
4292.8	2.3295	2329.5	0.86558
4290.9	2.3305	2330.5	0.86552
4288.9	2.3316	2331.6	0.86558
4287.1	2.3326	2332.6	0.86558
4285.0	2.3337	2333.7	0.86554
4283.2	2.3347	2334.7	0.86566
4281.2	2.3358	2335.8	0.86552
4279.4	2.3368	2336.8	0.86550
4277.3	2.3379	2337.9	0.86561
4275.5	2.3389	2338.9	0.86571
4273.5	2.3400	2340.0	0.86555
4271.7	2.3410	2341.0	0.86556
4269.7	2.3421	2342.1	0.86546
4267.7	2.3432	2343.2	0.86535
4265.8	2.3442	2344.2	0.86539
4263.8	2.3453	2345.3	0.86546
4262.0	2.3463	2346.3	0.86538
4260.0	2.3474	2347.4	0.86539
4258.0	2.3485	2348.5	0.86530
4256.2	2.3495	2349.5	0.86536
4254.2	2.3506	2350.6	0.86540
4252.2	2.3517	2351.7	0.86541
4250.4	2.3527	2352.7	0.86543
4248.4	2.3538	2353.8	0.86560
4246.5	2.3549	2354.9	0.86567
4244.7	2.3559	2355.9	0.86563
4242.7	2.3570	2357.0	0.86560
4240.7	2.3581	2358.1	0.86577
4238.9	2.3591	2359.1	0.86591
4236.9	2.3602	2360.2	0.86593
4235.0	2.3613	2361.3	0.86587
4233.0	2.3624	2362.4	0.86586
4231.2	2.3634	2363.4	0.86589
4229.2	2.3645	2364.5	0.86587
4227.3	2.3656	2365.6	0.86579
4225.3	2.3667	2366.7	0.86583
4223.3	2.3678	2367.8	0.86593
4221.4	2.3689	2368.9	0.86599
4219.6	2.3699	2369.9	0.86588
4217.6	2.3710	2371.0	0.86593
4215.7	2.3721	2372.1	0.86598
4213.7	2.3732	2373.2	0.86604
4211.8	2.3743	2374.3	0.86607
4209.8	2.3754	2375.4	0.86607
4208.0	2.3764	2376.4	0.86600
4206.1	2.3775	2377.5	0.86607
4204.2	2.3786	2378.6	0.86607
4202.2	2.3797	2379.7	0.86610
4200.3	2.3808	2380.8	0.86610
4198.3	2.3819	2381.9	0.86609
4196.4	2.3830	2383.0	0.86602
4194.5	2.3841	2384.1	0.86619
4192.5	2.3852	2385.2	0.86615
4190.6	2.3863	2386.3	0.86618
4188.7	2.3874	2387.4	0.86631
4186.7	2.3885	2388.5	0.86633
4184.8	2.3896	2389.6	0.86627
4182.9	2.3907	2390.7	0.86626
4181.0	2.3918	2391.8	0.86617
4179.0	2.3929	2392.9	0.86626
4177.1	2.3940	2394.0	0.86637
4175.2	2.3951	2395.1	0.86644
4173.3	2.3962	2396.2	0.86644
4171.4	2.3973	2397.3	0.86642
4169.4	2.3984	2398.4	0.86635
4167.4	2.3996	2399.6	0.86638
4165.5	2.4007	2400.7	0.86634
4163.5	2.4018	2401.8	0.86637
4161.6	2.4029	2402.9	0.86639
4159.7	2.4040	2404.0	0.86643
4157.8	2.4051	2405.1	0.86638
4155.9	2.4062	2406.2	0.86643
4153.9	2.4074	2407.4	0.86650
4152.0	2.4085	2408.5	0.86653
4150.1	2.4096	2409.6	0.86643
4148.2	2.4107	2410.7	0.86635
4146.3	2.4118	2411.8	0.86635
4144.4	2.4129	2412.9	0.86643
4142.3	2.4141	2414.1	0.86647
4140.4	2.4152	2415.2	0.86653
4138.6	2.4163	2416.3	0.86649
4136.7	2.4174	2417.4	0.86648
4134.6	2.4186	2418.6	0.86645
4132.7	2.4197	2419.7	0.86658
4130.9	2.4208	2420.8	0.86658
4128.8	2.4220	2422.0	0.86650
4126.9	2.4231	2423.1	0.86641
4125.1	2.4242	2424.2	0.86650
4123.0	2.4254	2425.4	0.86657
4121.2	2.4265	2426.5	0.86655
4119.3	2.4276	2427.6	0.86645
4117.3	2.4288	2428.8	0.86645
4115.4	2.4299	2429.9	0.86647
4113.4	2.4311	2431.1	0.86638
4111.5	2.4322	2432.2	0.86628
4109.6	2.4333	2433.3	0.86638
4107.6	2.4345	2434.5	0.86650
4105.8	2.4356	2435.6	0.86654
4103.7	2.4368	2436.8	0.86641
4101.9	2.4379	2437.9	0.86633
4099.9	2.4391	2439.1	0.86636
4098.0	2.4402	2440.2	0.86638
4096.0	2.4414	2441.4	0.86628
4094.2	2.4425	2442.5	0.86629
4092.3	2.4436	2443.6	0.86628
4090.3	2.4448	2444.8	0.86627
4088.3	2.4460	2446.0	0.86620
4086.5	2.4471	2447.1	0.86621
4084.5	2.4483	2448.3	0.86616
4082.6	2.4494	2449.4	0.86619
4080.6	2.4506	2450.6	0.86620
4078.8	2.4517	2451.7	0.86632
4076.8	2.4529	2452.9	0.86636
4074.8	2.4541	2454.1	0.86621
4073.0	2.4552	2455.2	0.86615
4071.0	2.4564	2456.4	0.86610
4069.0	2.4576	2457.6	0.86598
4067.2	2.4587	2458.7	0.86602
4065.2	2.4599	2459.9	0.86603
4063.2	2.4611	2461.1	0.86605
4061.4	2.4622	2462.2	0.86602
4059.4	2.4634	2463.4	0.86606
4057.5	2.4646	2464.6	0.86603
4055.6	2.4657	2465.7	0.86598
4053.7	2.4669	2466.9	0.86588
4051.7	2.4681	2468.1	0.86593
4049.7	2.4693	2469.3	0.86604
4047.9	2.4704	2470.4	0.86607
4046.0	2.4716	2471.6	0.86603
4044.0	2.4728	2472.8	0.86598
4042.0	2.4740	2474.0	0.86595
4040.2	2.4751	2475.1	0.86603
4038.3	2.4763	2476.3	0.86612
4036.3	2.4775	2477.5	0.86614
4034.4	2.4787	2478.7	0.86609
4032.4	2.4799	2479.9	0.86609
4030.5	2.4811	2481.1	0.86601
4028.5	2.4823	2482.3	0.86598
4026.7	2.4834	2483.4	0.86597
4024.8	2.4846	2484.6	0.86596
4022.8	2.4858	2485.8	0.86589
4020.9	2.4870	2487.0	0.86592
4019.0	2.4882	2488.2	0.86580
4017.0	2.4894	2489.4	0.86583
4015.1	2.4906	2490.6	0.86586
4013.2	2.4918	2491.8	0.86593
4011.2	2.4930	2493.0	0.86590
4009.3	2.4942	2494.2	0.86598
4007.4	2.4954	2495.4	0.86598
4005.4	2.4966	2496.6	0.86594
4003.5	2.4978	2497.8	0.86590
4001.6	2.4990	2499.0	0.86586
3999.7	2.5002	2500.2	0.86575
3997.8	2.5014	2501.4	0.86574
3995.8	2.5026	2502.6	0.86574
3993.9	2.5038	2503.8	0.86572
3992.0	2.5050	2505.0	0.86561
3989.9	2.5063	2506.3	0.86564
3988.0	2.5075	2507.5	0.86568
3986.1	2.5087	2508.7	0.86570
3984.2	2.5099	2509.9	0.86561
3982.3	2.5111	2511.1	0.86561
3980.4	2.5123	2512.3	0.86560
3978.5	2.5135	2513.5	0.86563
3976.5	2.5148	2514.8	0.86561
3974.6	2.5160	2516.0	0.86559
3972.7	2.5172	2517.2	0.86552
3970.8	2.5184	2518.4	0.86555
3968.9	2.5196	2519.6	0.86543
3966.8	2.5209	2520.9	0.86535
3964.9	2.5221	2522.1	0.86546
3963.1	2.5233	2523.3	0.86557
3961.0	2.5246	2524.6	0.86558
3959.1	2.5258	2525.8	0.86555
3957.3	2.5270	2527.0	0.86547
3955.2	2.5283	2528.3	0.86542
3953.4	2.5295	2529.5	0.86530
3951.5	2.5307	2530.7	0.86538
3949.6	2.5319	2531.9	0.86546
3947.6	2.5332	2533.2	0.86552
3945.7	2.5344	2534.4	0.86544
3943.7	2.5357	2535.7	0.86549
3941.8	2.5369	2536.9	0.86541
3940.0	2.5381	2538.1	0.86526
3937.9	2.5394	2539.4	0.86520
3936.1	2.5406	2540.6	0.86518
3934.1	2.5419	2541.9	0.86515
3932.2	2.5431	2543.1	0.86519
3930.2	2.5444	2544.4	0.86509
3928.3	2.5456	2545.6	0.86503
3926.3	2.5469	2546.9	0.86505
3924.5	2.5481	2548.1	0.86508
3922.5	2.5494	2549.4	0.86498
3920.6	2.5506	2550.6	0.86496
3918.6	2.5519	2551.9	0.86505
3916.8	2.5531	2553.1	0.86507
3914.8	2.5544	2554.4	0.86490
3912.8	2.5557	2555.7	0.86482
3911.0	2.5569	2556.9	0.86478
3909.0	2.5582	2558.2	0.86476
3907.2	2.5594	2559.4	0.86488
3905.2	2.5607	2560.7	0.86527
3903.2	2.5620	2562.0	0.86552
3901.4	2.5632	2563.2	0.86555
3899.4	2.5645	2564.5	0.86541
3897.4	2.5658	2565.8	0.86502
3895.4	2.5671	2567.1	0.86464
3893.6	2.5683	2568.3	0.86478
3891.7	2.5696	2569.6	0.86504
3889.7	2.5709	2570.9	0.86488
3887.9	2.5721	2572.1	0.86475
3885.9	2.5734	2573.4	0.86508
3883.9	2.5747	2574.7	0.86486
3882.0	2.5760	2576.0	0.86471
3880.0	2.5773	2577.3	0.86490
3878.2	2.5785	2578.5	0.86472
3876.3	2.5798	2579.8	0.86462
3874.3	2.5811	2581.1	0.86488
3872.4	2.5824	2582.4	0.86490
3870.4	2.5837	2583.7	0.86524
3868.5	2.5850	2585.0	0.86513
3866.5	2.5863	2586.3	0.86479
3864.7	2.5875	2587.5	0.86493
3862.8	2.5888	2588.8	0.86475
3860.9	2.5901	2590.1	0.86446
3858.9	2.5914	2591.4	0.86434
3857.0	2.5927	2592.7	0.86458
3855.1	2.5940	2594.0	0.86570
3853.1	2.5953	2595.3	0.86638
3851.2	2.5966	2596.6	0.86507
3849.3	2.5979	2597.9	0.86408
3847.3	2.5992	2599.2	0.86378
3845.4	2.6005	2600.5	0.86385
3843.5	2.6018	2601.8	0.86410
3841.6	2.6031	2603.1	0.86410
3839.7	2.6044	2604.4	0.86433
3837.6	2.6058	2605.8	0.86463
3835.7	2.6071	2607.1	0.86426
3833.8	2.6084	2608.4	0.86384
3831.9	2.6097	2609.7	0.86373
3830.0	2.6110	2611.0	0.86347
3828.0	2.6123	2612.3	0.86335
3826.1	2.6136	2613.6	0.86346
3824.2	2.6149	2614.9	0.86348
3822.2	2.6163	2616.3	0.86401
3820.3	2.6176	2617.6	0.86413
3818.4	2.6189	2618.9	0.86357
3816.5	2.6202	2620.2	0.86374
3814.5	2.6216	2621.6	0.86343
3812.6	2.6229	2622.9	0.86288
3810.7	2.6242	2624.2	0.86279
3808.8	2.6255	2625.5	0.86311
3806.8	2.6269	2626.9	0.86355
3804.9	2.6282	2628.2	0.86317
3803.0	2.6295	2629.5	0.86328
3801.0	2.6309	2630.9	0.86363
3799.1	2.6322	2632.2	0.86289
3797.2	2.6335	2633.5	0.86264
3795.2	2.6349	2634.9	0.86253
3793.3	2.6362	2636.2	0.86220
3791.3	2.6376	2637.6	0.86205
3789.5	2.6389	2638.9	0.86201
3787.6	2.6402	2640.2	0.86198
3785.6	2.6416	2641.6	0.86198
3783.7	2.6429	2642.9	0.86194
3781.7	2.6443	2644.3	0.86184
3779.9	2.6456	2645.6	0.86177
3777.9	2.6470	2647.0	0.86154
3776.0	2.6483	2648.3	0.86135
3774.0	2.6497	2649.7	0.86124
3772.2	2.6510	2651.0	0.86129
3770.2	2.6524	2652.4	0.86152
3768.2	2.6538	2653.8	0.86132
3766.3	2.6551	2655.1	0.86110
3764.4	2.6565	2656.5	0.86101
3762.5	2.6578	2657.8	0.86073
3760.5	2.6592	2659.2	0.86074
3758.6	2.6606	2660.6	0.86072
3756.7	2.6619	2661.9	0.86047
3754.7	2.6633	2663.3	0.86038
3752.8	2.6647	2664.7	0.86109
3750.9	2.6660	2666.0	0.86158
3749.0	2.6674	2667.4	0.86104
3747.0	2.6688	2668.8	0.86036
3745.2	2.6701	2670.1	0.86090
3743.2	2.6715	2671.5	0.86035
3741.3	2.6729	2672.9	0.85886
3739.3	2.6743	2674.3	0.85831
3737.3	2.6757	2675.7	0.85847
3735.5	2.6770	2677.0	0.85862
3733.6	2.6784	2678.4	0.85798
3731.6	2.6798	2679.8	0.85726
3729.7	2.6812	2681.2	0.85635
3727.7	2.6826	2682.6	0.85609
3725.8	2.6840	2684.0	0.85597
3723.8	2.6854	2685.4	0.85546
3721.9	2.6868	2686.8	0.85514
3720.1	2.6881	2688.1	0.85485
3718.2	2.6895	2689.5	0.85429
3716.2	2.6909	2690.9	0.85383
3714.3	2.6923	2692.3	0.85371
3712.4	2.6937	2693.7	0.85377
3710.4	2.6951	2695.1	0.85308
3708.5	2.6965	2696.5	0.85206
3706.6	2.6979	2697.9	0.85113
3704.7	2.6993	2699.3	0.85038
3702.6	2.7008	2700.8	0.84983
3700.8	2.7021	2702.1	0.84912
3698.8	2.7036	2703.6	0.84819
3696.9	2.7050	2705.0	0.84740
3694.9	2.7064	2706.4	0.84656
3693.0	2.7078	2707.8	0.84598
3691.1	2.7092	2709.2	0.84561
3689.2	2.7106	2710.6	0.84490
3687.2	2.7121	2712.1	0.84346
3685.3	2.7135	2713.5	0.84193
3683.4	2.7149	2714.9	0.84074
3681.5	2.7163	2716.3	0.83963
3679.6	2.7177	2717.7	0.83887
3677.6	2.7192	2719.2	0.83872
3675.7	2.7206	2720.6	0.83836
3673.8	2.7220	2722.0	0.83617
3671.9	2.7234	2723.4	0.83459
3669.9	2.7249	2724.9	0.83359
3668.0	2.7263	2726.3	0.83178
3666.1	2.7277	2727.7	0.83002
3664.1	2.7292	2729.2	0.82859
3662.2	2.7306	2730.6	0.82730
3660.2	2.7321	2732.1	0.82589
3658.3	2.7335	2733.5	0.82478
3656.4	2.7349	2734.9	0.82394
3654.4	2.7364	2736.4	0.82244
3652.6	2.7378	2737.8	0.82100
3650.6	2.7393	2739.3	0.82027
3648.7	2.7407	2740.7	0.81909
3646.7	2.7422	2742.2	0.81706
3644.8	2.7436	2743.6	0.81489
3642.9	2.7451	2745.1	0.81321
3641.0	2.7465	2746.5	0.81165
3639.0	2.7480	2748.0	0.81001
3637.2	2.7494	2749.4	0.80840
3635.2	2.7509	2750.9	0.80689
3633.2	2.7524	2752.4	0.80537
3631.3	2.7538	2753.8	0.80411
3629.4	2.7553	2755.3	0.80321
3627.5	2.7567	2756.7	0.80102
3625.6	2.7582	2758.2	0.79866
3623.6	2.7597	2759.7	0.79692
3621.7	2.7611	2761.1	0.79550
3619.8	2.7626	2762.6	0.79428
3617.8	2.7641	2764.1	0.79260
3615.9	2.7656	2765.6	0.79082
3614.0	2.7670	2767.0	0.78940
3612.1	2.7685	2768.5	0.78796
3610.1	2.7700	2770.0	0.78641
3608.2	2.7715	2771.5	0.78477
3606.2	2.7730	2773.0	0.78282
3604.4	2.7744	2774.4	0.78097
3602.4	2.7759	2775.9	0.77939
3600.5	2.7774	2777.4	0.77789
3598.5	2.7789	2778.9	0.77632
3596.6	2.7804	2780.4	0.77500
3594.7	2.7819	2781.9	0.77367
3592.7	2.7834	2783.4	0.77219
3590.8	2.7849	2784.9	0.77081
3588.9	2.7864	2786.4	0.76981
3586.9	2.7879	2787.9	0.76849
3585.0	2.7894	2789.4	0.76673
3583.1	2.7909	2790.9	0.76541
3581.1	2.7924	2792.4	0.76428
3579.2	2.7939	2793.9	0.76312
3577.3	2.7954	2795.4	0.76200
3575.4	2.7969	2796.9	0.76087
3573.5	2.7984	2798.4	0.75966
3571.6	2.7999	2799.9	0.75846
3569.6	2.8014	2801.4	0.75763
3567.7	2.8029	2802.9	0.75702
3565.8	2.8044	2804.4	0.75588
3563.8	2.8060	2806.0	0.75447
3561.9	2.8075	2807.5	0.75327
3560.0	2.8090	2809.0	0.75226
3558.1	2.8105	2810.5	0.75132
3556.1	2.8121	2812.1	0.75039
3554.2	2.8136	2813.6	0.74949
3552.3	2.8151	2815.1	0.74867
3550.4	2.8166	2816.6	0.74774
3548.4	2.8182	2818.2	0.74685
3546.5	2.8197	2819.7	0.74592
3544.6	2.8212	2821.2	0.74494
3542.6	2.8228	2822.8	0.74418
3540.7	2.8243	2824.3	0.74348
3538.7	2.8259	2825.9	0.74279
3536.8	2.8274	2827.4	0.74193
3534.9	2.8289	2828.9	0.74122
3532.9	2.8305	2830.5	0.74058
3531.1	2.8320	2832.0	0.73989
3529.1	2.8336	2833.6	0.73923
3527.2	2.8351	2835.1	0.73854
3525.2	2.8367	2836.7	0.73775
3523.4	2.8382	2838.2	0.73697
3521.4	2.8398	2839.8	0.73634
3519.5	2.8413	2841.3	0.73574
3517.5	2.8429	2842.9	0.73514
3515.7	2.8444	2844.4	0.73449
3513.7	2.8460	2846.0	0.73381
3511.7	2.8476	2847.6	0.73333
3509.9	2.8491	2849.1	0.73283
3507.9	2.8507	2850.7	0.73216
3505.9	2.8523	2852.3	0.73152
3504.1	2.8538	2853.8	0.73093
3502.1	2.8554	2855.4	0.73029
3500.2	2.8570	2857.0	0.72986
3498.2	2.8586	2858.6	0.72938
3496.4	2.8601	2860.1	0.72893
3494.4	2.8617	2861.7	0.72851
3492.5	2.8633	2863.3	0.72807
3490.5	2.8649	2864.9	0.72760
3488.6	2.8665	2866.5	0.72711
3486.6	2.8681	2868.1	0.72667
3484.8	2.8696	2869.6	0.72631
3482.9	2.8712	2871.2	0.72598
3480.9	2.8728	2872.8	0.72550
3479.0	2.8744	2874.4	0.72503
3477.1	2.8760	2876.0	0.72473
3475.1	2.8776	2877.6	0.72444
3473.2	2.8792	2879.2	0.72416
3471.3	2.8808	2880.8	0.72369
3469.3	2.8824	2882.4	0.72308
3467.4	2.8840	2884.0	0.72271
3465.5	2.8856	2885.6	0.72259
3463.6	2.8872	2887.2	0.72245
3461.6	2.8888	2888.8	0.72218
3459.7	2.8904	2890.4	0.72182
3457.8	2.8920	2892.0	0.72158
3455.9	2.8936	2893.6	0.72138
3453.9	2.8953	2895.3	0.72118
3452.0	2.8969	2896.9	0.72092
3450.1	2.8985	2898.5	0.72068
3448.2	2.9001	2900.1	0.72042
3446.1	2.9018	2901.8	0.72016
3444.2	2.9034	2903.4	0.71998
3442.3	2.9050	2905.0	0.71984
3440.4	2.9066	2906.6	0.71962
3438.4	2.9083	2908.3	0.71933
3436.5	2.9099	2909.9	0.71892
3434.7	2.9115	2911.5	0.71865
3432.7	2.9132	2913.2	0.71866
3430.8	2.9148	2914.8	0.71855
3428.9	2.9164	2916.4	0.71831
3426.9	2.9181	2918.1	0.71825
3425.0	2.9197	2919.7	0.71825
3423.0	2.9214	2921.4	0.71822
3421.1	2.9230	2923.0	0.71803
3419.2	2.9247	2924.7	0.71787
3417.3	2.9263	2926.3	0.71780
3415.3	2.9280	2928.0	0.71771
3413.4	2.9296	2929.6	0.71754
3411.5	2.9313	2931.3	0.71745
3409.6	2.9329	2932.9	0.71736
3407.6	2.9346	2934.6	0.71732
3405.6	2.9363	2936.3	0.71731
3403.8	2.9379	2937.9	0.71718
3401.8	2.9396	2939.6	0.71674
3399.9	2.9413	2941.3	0.71647
3398.0	2.9429	2942.9	0.71673
3396.0	2.9446	2944.6	0.71692
3394.1	2.9463	2946.3	0.71681
3392.2	2.9479	2947.9	0.71649
3390.3	2.9496	2949.6	0.71645
3388.3	2.9513	2951.3	0.71673
3386.4	2.9530	2953.0	0.71687
3384.4	2.9547	2954.7	0.71697
3382.6	2.9563	2956.3	0.71695
3380.7	2.9580	2958.0	0.71685
3378.7	2.9597	2959.7	0.71676
3376.8	2.9614	2961.4	0.71684
3374.8	2.9631	2963.1	0.71689
3372.9	2.9648	2964.8	0.71689
3371.0	2.9665	2966.5	0.71672
3369.0	2.9682	2968.2	0.71647
3367.1	2.9699	2969.9	0.71659
3365.2	2.9716	2971.6	0.71695
3363.3	2.9733	2973.3	0.71714
3361.3	2.9750	2975.0	0.71718
3359.4	2.9767	2976.7	0.71721
3357.5	2.9784	2978.4	0.71731
3355.6	2.9801	2980.1	0.71742
3353.6	2.9819	2981.9	0.71751
3351.7	2.9836	2983.6	0.71741
3349.7	2.9853	2985.3	0.71739
3347.8	2.9870	2987.0	0.71767
3345.9	2.9887	2988.7	0.71793
3344.0	2.9904	2990.4	0.71799
3342.0	2.9922	2992.2	0.71804
3340.1	2.9939	2993.9	0.71807
3338.2	2.9956	2995.6	0.71811
3336.2	2.9974	2997.4	0.71841
3334.3	2.9991	2999.1	0.71873
3332.4	3.0008	3000.8	0.71892
3330.4	3.0026	3002.6	0.71902
3328.6	3.0043	3004.3	0.71910
3326.6	3.0061	3006.1	0.71908
3324.7	3.0078	3007.8	0.71912
3322.8	3.0095	3009.5	0.71936
3320.8	3.0113	3011.3	0.71958
3319.0	3.0130	3013.0	0.71977
3317.0	3.0148	3014.8	0.71989
3315.1	3.0165	3016.5	0.72003
3313.1	3.0183	3018.3	0.72019
3311.1	3.0201	3020.1	0.72026
3309.3	3.0218	3021.8	0.72016
3307.3	3.0236	3023.6	0.72004
3305.5	3.0253	3025.3	0.72004
3303.5	3.0271	3027.1	0.72044
3301.5	3.0289	3028.9	0.72085
3299.7	3.0306	3030.6	0.72099
3297.7	3.0324	3032.4	0.72099
3295.8	3.0342	3034.2	0.72097
3293.8	3.0360	3036.0	0.72101
3292.0	3.0377	3037.7	0.72106
3290.0	3.0395	3039.5	0.72131
3288.1	3.0413	3041.3	0.72153
3286.1	3.0431	3043.1	0.72164
3284.2	3.0449	3044.9	0.72182
3282.2	3.0467	3046.7	0.72193
3280.3	3.0485	3048.5	0.72202
3278.4	3.0503	3050.3	0.72206
3276.4	3.0521	3052.1	0.72204
3274.6	3.0538	3053.8	0.72206
3272.7	3.0556	3055.6	0.72202
3270.8	3.0574	3057.4	0.72189
3268.7	3.0593	3059.3	0.72211
3266.8	3.0611	3061.1	0.72234
3264.9	3.0629	3062.9	0.72244
3263.0	3.0647	3064.7	0.72251
3261.0	3.0665	3066.5	0.72263
3259.1	3.0683	3068.3	0.72273
3257.2	3.0701	3070.1	0.72276
3255.3	3.0719	3071.9	0.72276
3253.3	3.0738	3073.8	0.72289
3251.4	3.0756	3075.6	0.72295
3249.5	3.0774	3077.4	0.72297
3247.6	3.0792	3079.2	0.72295
3245.6	3.0811	3081.1	0.72309
3243.7	3.0829	3082.9	0.72326
3241.8	3.0847	3084.7	0.72335
3239.8	3.0866	3086.6	0.72344
3237.9	3.0884	3088.4	0.72357
3236.0	3.0902	3090.2	0.72360
3234.0	3.0921	3092.1	0.72348
3232.2	3.0939	3093.9	0.72362
3230.2	3.0958	3095.8	0.72392
3228.3	3.0976	3097.6	0.72411
3226.3	3.0995	3099.5	0.72430
3224.5	3.1013	3101.3	0.72442
3222.5	3.1032	3103.2	0.72450
3220.5	3.1051	3105.1	0.72455
3218.6	3.1069	3106.9	0.72468
3216.7	3.1088	3108.8	0.72484
3214.8	3.1106	3110.6	0.72500
3212.9	3.1125	3112.5	0.72512
3210.9	3.1144	3114.4	0.72522
3209.0	3.1162	3116.2	0.72538
3207.1	3.1181	3118.1	0.72552
3205.1	3.1200	3120.0	0.72563
3203.2	3.1219	3121.9	0.72575
3201.2	3.1238	3123.8	0.72589
3199.4	3.1256	3125.6	0.72602
3197.4	3.1275	3127.5	0.72613
3195.5	3.1294	3129.4	0.72628
3193.6	3.1313	3131.3	0.72642
3191.6	3.1332	3133.2	0.72662
3189.7	3.1351	3135.1	0.72683
3187.8	3.1370	3137.0	0.72700
3185.8	3.1389	3138.9	0.72713
3183.9	3.1408	3140.8	0.72727
3182.0	3.1427	3142.7	0.72745
3180.1	3.1446	3144.6	0.72760
3178.1	3.1465	3146.5	0.72767
3176.2	3.1484	3148.4	0.72780
3174.3	3.1503	3150.3	0.72797
3172.4	3.1522	3152.2	0.72817
3170.5	3.1541	3154.1	0.72835
3168.5	3.1561	3156.1	0.72859
3166.6	3.1580	3158.0	0.72871
3164.7	3.1599	3159.9	0.72884
3162.8	3.1618	3161.8	0.72903
3160.8	3.1638	3163.8	0.72918
3158.9	3.1657	3165.7	0.72933
3157.0	3.1676	3167.6	0.72947
3155.0	3.1696	3169.6	0.72956
3153.1	3.1715	3171.5	0.72955
3151.1	3.1735	3173.5	0.72971
3149.2	3.1754	3175.4	0.73007
3147.3	3.1773	3177.3	0.73032
3145.3	3.1793	3179.3	0.73049
3143.5	3.1812	3181.2	0.73063
3141.5	3.1832	3183.2	0.73082
3139.6	3.1851	3185.1	0.73088
3137.6	3.1871	3187.1	0.73099
3135.7	3.1891	3189.1	0.73122
3133.8	3.1910	3191.0	0.73143
3131.9	3.1930	3193.0	0.73150
3129.9	3.1950	3195.0	0.73159
3128.0	3.1969	3196.9	0.73172
3126.1	3.1989	3198.9	0.73191
3124.1	3.2009	3200.9	0.73205
3122.2	3.2029	3202.9	0.73205
3120.3	3.2048	3204.8	0.73195
3118.4	3.2068	3206.8	0.73199
3116.4	3.2088	3208.8	0.73211
3114.5	3.2108	3210.8	0.73242
3112.5	3.2128	3212.8	0.73280
3110.6	3.2148	3214.8	0.73298
3108.7	3.2168	3216.8	0.73300
3106.7	3.2188	3218.8	0.73322
3104.8	3.2208	3220.8	0.73346
3102.9	3.2228	3222.8	0.73354
3101.0	3.2248	3224.8	0.73354
3099.0	3.2268	3226.8	0.73362
3097.1	3.2288	3228.8	0.73384
3095.2	3.2308	3230.8	0.73402
3093.3	3.2328	3232.8	0.73409
3091.4	3.2348	3234.8	0.73408
3089.5	3.2368	3236.8	0.73413
3087.5	3.2389	3238.9	0.73425
3085.6	3.2409	3240.9	0.73422
3083.7	3.2429	3242.9	0.73419
3081.8	3.2449	3244.9	0.73425
3079.8	3.2470	3247.0	0.73423
3077.9	3.2490	3249.0	0.73427
3075.9	3.2511	3251.1	0.73451
3074.0	3.2531	3253.1	0.73474
3072.1	3.2551	3255.1	0.73487
3070.1	3.2572	3257.2	0.73495
3068.2	3.2592	3259.2	0.73484
3066.3	3.2613	3261.3	0.73481
3064.4	3.2633	3263.3	0.73500
3062.4	3.2654	3265.4	0.73509
3060.5	3.2674	3267.4	0.73513
3058.6	3.2695	3269.5	0.73519
3056.6	3.2716	3271.6	0.73522
3054.7	3.2736	3273.6	0.73528
3052.8	3.2757	3275.7	0.73530
3050.8	3.2778	3277.8	0.73526
3049.0	3.2798	3279.8	0.73532
3047.0	3.2819	3281.9	0.73535
3045.1	3.2840	3284.0	0.73527
3043.1	3.2861	3286.1	0.73513
3041.2	3.2882	3288.2	0.73503
3039.3	3.2902	3290.2	0.73512
3037.4	3.2923	3292.3	0.73520
3035.5	3.2944	3294.4	0.73508
3033.5	3.2965	3296.5	0.73502
3031.6	3.2986	3298.6	0.73506
3029.7	3.3007	3300.7	0.73503
3027.7	3.3028	3302.8	0.73499
3025.8	3.3049	3304.9	0.73488
3023.9	3.3070	3307.0	0.73475
3022.0	3.3091	3309.1	0.73471
3020.0	3.3113	3311.3	0.73461
3018.0	3.3134	3313.4	0.73446
3016.1	3.3155	3315.5	0.73428
3014.2	3.3176	3317.6	0.73402
3012.3	3.3197	3319.7	0.73383
3010.3	3.3219	3321.9	0.73373
3008.4	3.3240	3324.0	0.73367
3006.5	3.3261	3326.1	0.73355
3004.5	3.3283	3328.3	0.73335
3002.6	3.3304	3330.4	0.73311
3000.8	3.3325	3332.5	0.73282
2998.8	3.3347	3334.7	0.73239
2996.9	3.3368	3336.8	0.73202
2994.9	3.3390	3339.0	0.73164
2993.0	3.3411	3341.1	0.73107
2991.1	3.3433	3343.3	0.73060
2989.2	3.3454	3345.4	0.73010
2987.2	3.3476	3347.6	0.72940
2985.3	3.3498	3349.8	0.72862
2983.4	3.3519	3351.9	0.72769
2981.4	3.3541	3354.1	0.72662
2979.5	3.3563	3356.3	0.72540
2977.6	3.3584	3358.4	0.72402
2975.7	3.3606	3360.6	0.72226
2973.7	3.3628	3362.8	0.72002
2971.8	3.3650	3365.0	0.71736
2969.8	3.3672	3367.2	0.71431
2967.9	3.3694	3369.4	0.71121
2966.0	3.3715	3371.5	0.70843
2964.1	3.3737	3373.7	0.70604
2962.2	3.3759	3375.9	0.70404
2960.2	3.3781	3378.1	0.70268
2958.3	3.3803	3380.3	0.70213
2956.4	3.3825	3382.5	0.70219
2954.5	3.3847	3384.7	0.70250
2952.6	3.3869	3386.9	0.70292
2950.5	3.3892	3389.2	0.70341
2948.6	3.3914	3391.4	0.70352
2946.7	3.3936	3393.6	0.70297
2944.8	3.3958	3395.8	0.70177
2942.8	3.3981	3398.1	0.69995
2940.9	3.4003	3400.3	0.69759
2939.0	3.4025	3402.5	0.69460
2937.1	3.4047	3404.7	0.69119
2935.1	3.4070	3407.0	0.68761
2933.2	3.4092	3409.2	0.68405
2931.3	3.4115	3411.5	0.68067
2929.4	3.4137	3413.7	0.67783
2927.4	3.4160	3416.0	0.67613
2925.5	3.4182	3418.2	0.67577
2923.5	3.4205	3420.5	0.67687
2921.7	3.4227	3422.7	0.67939
2919.7	3.4250	3425.0	0.68284
2917.7	3.4273	3427.3	0.68649
2915.9	3.4295	3429.5	0.68991
2913.9	3.4318	3431.8	0.69285
2912.0	3.4341	3434.1	0.69548
2910.1	3.4363	3436.3	0.69774
2908.2	3.4386	3438.6	0.69960
2906.2	3.4409	3440.9	0.70121
2904.3	3.4432	3443.2	0.70255
2902.3	3.4455	3445.5	0.70381
2900.4	3.4478	3447.8	0.70502
2898.5	3.4501	3450.1	0.70613
2896.5	3.4524	3452.4	0.70716
2894.7	3.4546	3454.6	0.70821
2892.8	3.4569	3456.9	0.70925
2890.8	3.4593	3459.3	0.71016
2888.8	3.4616	3461.6	0.71091
2886.9	3.4639	3463.9	0.71137
2885.0	3.4662	3466.2	0.71156
2883.1	3.4685	3468.5	0.71136
2881.2	3.4708	3470.8	0.71087
2879.2	3.4732	3473.2	0.71023
2877.3	3.4755	3475.5	0.70945
2875.4	3.4778	3477.8	0.70848
2873.5	3.4801	3480.1	0.70745
2871.5	3.4825	3482.5	0.70673
2869.6	3.4848	3484.8	0.70612
2867.6	3.4872	3487.2	0.70526
2865.7	3.4895	3489.5	0.70417
2863.8	3.4919	3491.9	0.70275
2861.9	3.4942	3494.2	0.70088
2859.9	3.4966	3496.6	0.69867
2858.0	3.4989	3498.9	0.69676
2856.1	3.5013	3501.3	0.69582
2854.1	3.5037	3503.7	0.69618
2852.3	3.5060	3506.0	0.69783
2850.3	3.5084	3508.4	0.70048
2848.4	3.5108	3510.8	0.70359
2846.4	3.5132	3513.2	0.70661
2844.5	3.5155	3515.5	0.70930
2842.6	3.5179	3517.9	0.71168
2840.7	3.5203	3520.3	0.71364
2838.7	3.5227	3522.7	0.71527
2836.8	3.5251	3525.1	0.71678
2834.9	3.5275	3527.5	0.71798
2832.9	3.5299	3529.9	0.71880
2831.0	3.5323	3532.3	0.71939
2829.1	3.5347	3534.7	0.71981
2827.2	3.5371	3537.1	0.72007
2825.3	3.5395	3539.5	0.72023
2823.3	3.5419	3541.9	0.72038
2821.4	3.5444	3544.4	0.72047
2819.4	3.5468	3546.8	0.72050
2817.5	3.5492	3549.2	0.72052
2815.6	3.5517	3551.7	0.72047
2813.7	3.5541	3554.1	0.72040
2811.8	3.5565	3556.5	0.72031
2809.8	3.5590	3559.0	0.72017
2807.9	3.5614	3561.4	0.72012
2805.9	3.5639	3563.9	0.72003
2804.0	3.5663	3566.3	0.71990
2802.1	3.5688	3568.8	0.71978
2800.2	3.5712	3571.2	0.71955
2798.2	3.5737	3573.7	0.71929
2796.3	3.5761	3576.1	0.71914
2794.4	3.5786	3578.6	0.71892
2792.4	3.5811	3581.1	0.71867
2790.5	3.5836	3583.6	0.71838
2788.6	3.5860	3586.0	0.71813
2786.7	3.5885	3588.5	0.71791
2784.7	3.5910	3591.0	0.71772
2782.8	3.5935	3593.5	0.71746
2780.9	3.5960	3596.0	0.71718
2778.9	3.5985	3598.5	0.71692
2777.0	3.6010	3601.0	0.71660
2775.1	3.6035	3603.5	0.71623
2773.2	3.6060	3606.0	0.71592
2771.2	3.6085	3608.5	0.71564
2769.3	3.6110	3611.0	0.71532
2767.4	3.6135	3613.5	0.71501
2765.4	3.6161	3616.1	0.71461
2763.5	3.6186	3618.6	0.71422
2761.6	3.6211	3621.1	0.71386
2759.7	3.6236	3623.6	0.71349
2757.7	3.6262	3626.2	0.71312
2755.8	3.6287	3628.7	0.71267
2753.8	3.6313	3631.3	0.71233
2751.9	3.6338	3633.8	0.71201
2750.0	3.6363	3636.3	0.71158
2748.1	3.6389	3638.9	0.71111
2746.2	3.6414	3641.4	0.71073
2744.2	3.6440	3644.0	0.71037
2742.3	3.6466	3646.6	0.70998
2740.4	3.6491	3649.1	0.70957
2738.5	3.6517	3651.7	0.70912
2736.5	3.6543	3654.3	0.70868
2734.6	3.6569	3656.9	0.70832
2732.7	3.6594	3659.4	0.70795
2730.7	3.6620	3662.0	0.70760
2728.8	3.6646	3664.6	0.70722
2726.9	3.6672	3667.2	0.70684
2724.9	3.6698	3669.8	0.70649
2723.0	3.6724	3672.4	0.70612
2721.1	3.6750	3675.0	0.70578
2719.2	3.6776	3677.6	0.70546
2717.2	3.6802	3680.2	0.70510
2715.3	3.6828	3682.8	0.70476
2713.4	3.6854	3685.4	0.70437
2711.4	3.6881	3688.1	0.70396
2709.5	3.6907	3690.7	0.70352
2707.6	3.6933	3693.3	0.70316
2705.7	3.6959	3695.9	0.70278
2703.7	3.6986	3698.6	0.70235
2701.8	3.7012	3701.2	0.70191
2699.9	3.7039	3703.9	0.70150
2698.0	3.7065	3706.5	0.70101
2696.0	3.7092	3709.2	0.70059
2694.1	3.7118	3711.8	0.70014
2692.2	3.7145	3714.5	0.69962
2690.3	3.7171	3717.1	0.69916
2688.3	3.7198	3719.8	0.69866
2686.4	3.7225	3722.5	0.69821
2684.4	3.7252	3725.2	0.69781
2682.5	3.7278	3727.8	0.69734
2680.6	3.7305	3730.5	0.69683
2678.7	3.7332	3733.2	0.69633
2676.7	3.7359	3735.9	0.69591
2674.8	3.7386	3738.6	0.69550
2672.9	3.7413	3741.3	0.69502
2670.9	3.7440	3744.0	0.69453
2669.0	3.7467	3746.7	0.69408
2667.1	3.7494	3749.4	0.69357
2665.2	3.7521	3752.1	0.69307
2663.3	3.7548	3754.8	0.69258
2661.3	3.7576	3757.6	0.69212
2659.4	3.7603	3760.3	0.69165
2657.5	3.7630	3763.0	0.69118
2655.5	3.7657	3765.7	0.69067
2653.6	3.7685	3768.5	0.69021
2651.7	3.7712	3771.2	0.68971
2649.7	3.7740	3774.0	0.68924
2647.8	3.7767	3776.7	0.68874
2645.9	3.7795	3779.5	0.68829
2644.0	3.7822	3782.2	0.68781
2642.0	3.7850	3785.0	0.68732
2640.1	3.7877	3787.7	0.68687
2638.2	3.7905	3790.5	0.68639
2636.2	3.7933	3793.3	0.68584
2634.3	3.7961	3796.1	0.68534
2632.4	3.7988	3798.8	0.68486
2630.5	3.8016	3801.6	0.68437
2628.5	3.8044	3804.4	0.68383
2626.6	3.8072	3807.2	0.68335
2624.7	3.8100	3810.0	0.68286
2622.7	3.8128	3812.8	0.68237
2620.8	3.8156	3815.6	0.68180
2618.9	3.8184	3818.4	0.68130
2617.0	3.8212	3821.2	0.68081
2615.0	3.8241	3824.1	0.68033
2613.1	3.8269	3826.9	0.67979
2611.2	3.8297	3829.7	0.67922
2609.3	3.8325	3832.5	0.67868
2607.3	3.8354	3835.4	0.67826
2605.4	3.8382	3838.2	0.67779
2603.4	3.8411	3841.1	0.67734
2601.5	3.8439	3843.9	0.67688
2599.6	3.8468	3846.8	0.67644
2597.7	3.8496	3849.6	0.67594
2595.7	3.8525	3852.5	0.67546
2593.8	3.8553	3855.3	0.67501
2591.9	3.8582	3858.2	0.67461
2589.9	3.8611	3861.1	0.67411
2588.1	3.8639	3863.9	0.67365
2586.1	3.8668	3866.8	0.67321
2584.2	3.8697	3869.7	0.67275
2582.2	3.8726	3872.6	0.67230
2580.3	3.8755	3875.5	0.67188
2578.4	3.8784	3878.4	0.67143
2576.5	3.8813	3881.3	0.67096
2574.5	3.8842	3884.2	0.67043
2572.6	3.8871	3887.1	0.66996
2570.7	3.8900	3890.0	0.66948
2568.7	3.8930	3893.0	0.66902
2566.8	3.8959	3895.9	0.66854
2564.9	3.8988	3898.8	0.66810
2563.0	3.9017	3901.7	0.66758
2561.0	3.9047	3904.7	0.66706
2559.1	3.9076	3907.6	0.66652
2557.2	3.9106	3910.6	0.66600
2555.3	3.9135	3913.5	0.66545
2553.3	3.9165	3916.5	0.66494
2551.4	3.9194	3919.4	0.66444
2549.5	3.9224	3922.4	0.66394
2547.5	3.9254	3925.4	0.66341
2545.6	3.9284	3928.4	0.66289
2543.7	3.9313	3931.3	0.66234
2541.7	3.9343	3934.3	0.66186
2539.8	3.9373	3937.3	0.66127
2537.9	3.9403	3940.3	0.66071
2535.9	3.9433	3943.3	0.66014
2534.0	3.9463	3946.3	0.65961
2532.1	3.9493	3949.3	0.65903
2530.2	3.9523	3952.3	0.65849
2528.3	3.9553	3955.3	0.65792
2526.3	3.9583	3958.3	0.65731
2524.4	3.9614	3961.4	0.65668
2522.4	3.9644	3964.4	0.65610
2520.5	3.9674	3967.4	0.65549
2518.6	3.9705	3970.5	0.65489
2516.7	3.9735	3973.5	0.65425
2514.7	3.9766	3976.6	0.65359
2512.8	3.9796	3979.6	0.65289
2510.9	3.9826	3982.6	0.65223
2509.0	3.9857	3985.7	0.65154
2507.0	3.9888	3988.8	0.65091
2505.1	3.9919	3991.9	0.65022
2503.2	3.9949	3994.9	0.64954
2501.3	3.9980	3998.0	0.64881
2499.3	4.0011	4001.1	0.64813
2497.4	4.0042	4004.2	0.64742
2495.4	4.0073	4007.3	0.64673
2493.5	4.0104	4010.4	0.64600
2491.6	4.0135	4013.5	0.64528
2489.7	4.0166	4016.6	0.64448
2487.7	4.0197	4019.7	0.64381
2485.8	4.0228	4022.8	0.64316
2483.9	4.0259	4025.9	0.64257
2481.9	4.0291	4029.1	0.64188
2480.0	4.0322	4032.2	0.64127
2478.1	4.0353	4035.3	0.64070
2476.2	4.0385	4038.5	0.64021
2474.3	4.0416	4041.6	0.63973
2472.3	4.0448	4044.8	0.63929
2470.4	4.0479	4047.9	0.63882
2468.5	4.0511	4051.1	0.63839
2466.5	4.0543	4054.3	0.63795
2464.6	4.0574	4057.4	0.63752
2462.7	4.0606	4060.6	0.63701
2460.8	4.0638	4063.8	0.63660
2458.8	4.0670	4067.0	0.63617
2456.9	4.0702	4070.2	0.63568
2455.0	4.0734	4073.4	0.63516
2453.0	4.0766	4076.6	0.63467
2451.1	4.0798	4079.8	0.63410
2449.2	4.0830	4083.0	0.63359
2447.3	4.0862	4086.2	0.63305
2445.3	4.0894	4089.4	0.63254
2443.4	4.0927	4092.7	0.63196
2441.5	4.0959	4095.9	0.63133
2439.6	4.0991	4099.1	0.63070
2437.6	4.1024	4102.4	0.63014
2435.7	4.1056	4105.6	0.62953
2433.7	4.1089	4108.9	0.62896
2431.8	4.1121	4112.1	0.62836
2429.9	4.1154	4115.4	0.62772
2428.0	4.1187	4118.7	0.62704
2426.0	4.1220	4122.0	0.62642
2424.1	4.1252	4125.2	0.62574
2422.2	4.1285	4128.5	0.62514
2420.3	4.1318	4131.8	0.62446
2418.3	4.1351	4135.1	0.62378
2416.4	4.1384	4138.4	0.62313
2414.5	4.1417	4141.7	0.62251
2412.5	4.1450	4145.0	0.62181
2410.6	4.1483	4148.3	0.62116
2408.7	4.1516	4151.6	0.62048
2406.7	4.1550	4155.0	0.61982
2404.8	4.1583	4158.3	0.61913
2402.9	4.1616	4161.6	0.61842
2401.0	4.1650	4165.0	0.61769
2399.1	4.1683	4168.3	0.61701
2397.1	4.1717	4171.7	0.61630
2395.2	4.1750	4175.0	0.61563
2393.3	4.1784	4178.4	0.61489
2391.3	4.1818	4181.8	0.61418
2389.4	4.1852	4185.2	0.61341
2387.5	4.1885	4188.5	0.61262
2385.6	4.1919	4191.9	0.61179
2383.6	4.1953	4195.3	0.61089
2381.7	4.1987	4198.7	0.60974
2379.8	4.2021	4202.1	0.60836
2377.8	4.2055	4205.5	0.60669
2375.9	4.2089	4208.9	0.60482
2373.9	4.2124	4212.4	0.60259
2372.0	4.2158	4215.8	0.60019
2370.1	4.2192	4219.2	0.59766
2368.2	4.2226	4222.6	0.59511
2366.2	4.2261	4226.1	0.59265
2364.3	4.2295	4229.5	0.59059
2362.4	4.2330	4233.0	0.58889
2360.4	4.2365	4236.5	0.58778
2358.5	4.2399	4239.9	0.58718
2356.6	4.2434	4243.4	0.58712
2354.7	4.2469	4246.9	0.58734
2352.8	4.2503	4250.3	0.58778
2350.8	4.2538	4253.8	0.58819
2348.9	4.2573	4257.3	0.58788
2347.0	4.2608	4260.8	0.58631
2345.1	4.2643	4264.3	0.58431
2343.1	4.2678	4267.8	0.58261
2341.2	4.2713	4271.3	0.58141
2339.2	4.2749	4274.9	0.58061
2337.3	4.2784	4278.4	0.58027
2335.4	4.2819	4281.9	0.58021
2333.4	4.2855	4285.5	0.58032
2331.5	4.2890	4289.0	0.58056
2329.6	4.2926	4292.6	0.58099
2327.7	4.2961	4296.1	0.58138
2325.7	4.2997	4299.7	0.58180
2323.8	4.3033	4303.3	0.58215
2321.9	4.3068	4306.8	0.58255
2320.0	4.3104	4310.4	0.58283
2318.0	4.3140	4314.0	0.58303
2316.1	4.3176	4317.6	0.58314
2314.2	4.3212	4321.2	0.58324
2312.2	4.3248	4324.8	0.58317
2310.3	4.3284	4328.4	0.58305
2308.4	4.3320	4332.0	0.58277
2306.5	4.3356	4335.6	0.58245
2304.5	4.3393	4339.3	0.58203
2302.6	4.3429	4342.9	0.58161
2300.7	4.3465	4346.5	0.58110
2298.7	4.3502	4350.2	0.58060
2296.8	4.3538	4353.8	0.58002
2294.9	4.3575	4357.5	0.57945
2293.0	4.3611	4361.1	0.57883
2291.1	4.3648	4364.8	0.57823
2289.1	4.3685	4368.5	0.57756
2287.2	4.3722	4372.2	0.57693
2285.2	4.3759	4375.9	0.57625
2283.3	4.3796	4379.6	0.57558
2281.4	4.3833	4383.3	0.57487
2279.5	4.3870	4387.0	0.57419
2277.5	4.3907	4390.7	0.57349
2275.6	4.3944	4394.4	0.57285
2273.7	4.3981	4398.1	0.57214
2271.7	4.4019	4401.9	0.57144
2269.8	4.4056	4405.6	0.57070
2267.9	4.4094	4409.4	0.56998
2266.0	4.4131	4413.1	0.56927
2264.0	4.4169	4416.9	0.56868
2262.1	4.4206	4420.6	0.56801
2260.2	4.4244	4424.4	0.56734
2258.3	4.4282	4428.2	0.56663
2256.3	4.4320	4432.0	0.56596
2254.4	4.4358	4435.8	0.56527
2252.5	4.4396	4439.6	0.56461
2250.5	4.4434	4443.4	0.56390
2248.6	4.4472	4447.2	0.56326
2246.7	4.4510	4451.0	0.56257
2244.8	4.4548	4454.8	0.56191
2242.9	4.4586	4458.6	0.56118
2240.9	4.4625	4462.5	0.56053
2239.0	4.4663	4466.3	0.55982
2237.0	4.4702	4470.2	0.55915
2235.1	4.4740	4474.0	0.55839
2233.2	4.4779	4477.9	0.55770
2231.2	4.4818	4481.8	0.55701
2229.4	4.4856	4485.6	0.55634
2227.4	4.4895	4489.5	0.55563
2225.5	4.4934	4493.4	0.55494
2223.6	4.4973	4497.3	0.55421
2221.6	4.5012	4501.2	0.55359
2219.7	4.5051	4505.1	0.55285
2217.8	4.5090	4509.0	0.55210
2215.8	4.5130	4513.0	0.55136
2213.9	4.5169	4516.9	0.55067
2211.9	4.5209	4520.9	0.54992
2210.0	4.5248	4524.8	0.54923
2208.1	4.5287	4528.7	0.54847
2206.2	4.5327	4532.7	0.54778
2204.2	4.5367	4536.7	0.54706
2202.4	4.5406	4540.6	0.54636
2200.4	4.5446	4544.6	0.54558
2198.5	4.5486	4548.6	0.54489
2196.5	4.5526	4552.6	0.54419
2194.6	4.5566	4556.6	0.54347
2192.7	4.5606	4560.6	0.54269
2190.8	4.5646	4564.6	0.54202
2188.9	4.5686	4568.6	0.54128
2186.9	4.5727	4572.7	0.54057
2185.0	4.5767	4576.7	0.53980
2183.0	4.5808	4580.8	0.53908
2181.1	4.5848	4584.8	0.53830
2179.2	4.5889	4588.9	0.53754
2177.3	4.5929	4592.9	0.53677
2175.3	4.5970	4597.0	0.53607
2173.4	4.6011	4601.1	0.53527
2171.5	4.6052	4605.2	0.53455
2169.5	4.6093	4609.3	0.53382
2167.6	4.6134	4613.4	0.53312
2165.7	4.6175	4617.5	0.53235
2163.8	4.6216	4621.6	0.53160
2161.8	4.6257	4625.7	0.53086
2159.9	4.6298	4629.8	0.53019
2158.0	4.6340	4634.0	0.52944
2156.1	4.6381	4638.1	0.52878
2154.1	4.6423	4642.3	0.52805
2152.2	4.6464	4646.4	0.52734
2150.3	4.6506	4650.6	0.52664
2148.3	4.6548	4654.8	0.52600
2146.4	4.6590	4659.0	0.52524
2144.5	4.6631	4663.1	0.52456
2142.6	4.6673	4667.3	0.52386
2140.6	4.6715	4671.5	0.52319
2138.7	4.6758	4675.8	0.52247
2136.8	4.6800	4680.0	0.52179
2134.8	4.6842	4684.2	0.52106
2132.9	4.6884	4688.4	0.52037
2131.0	4.6927	4692.7	0.51962
2129.1	4.6969	4696.9	0.51893
2127.1	4.7012	4701.2	0.51818
2125.2	4.7055	4705.5	0.51747
2123.3	4.7097	4709.7	0.51670
2121.3	4.7140	4714.0	0.51601
2119.4	4.7183	4718.3	0.51528
2117.5	4.7226	4722.6	0.51459
2115.6	4.7269	4726.9	0.51384
2113.6	4.7312	4731.2	0.51314
2111.7	4.7355	4735.5	0.51236
2109.7	4.7399	4739.9	0.51166
2107.8	4.7442	4744.2	0.51089
2105.9	4.7485	4748.5	0.51020
2104.0	4.7529	4752.9	0.50944
2102.0	4.7573	4757.3	0.50869
2100.1	4.7616	4761.6	0.50793
2098.2	4.7660	4766.0	0.50724
2096.3	4.7704	4770.4	0.50645
2094.3	4.7748	4774.8	0.50566
2092.4	4.7792	4779.2	0.50485
2090.5	4.7836	4783.6	0.50408
2088.6	4.7880	4788.0	0.50323
2086.6	4.7924	4792.4	0.50245
2084.7	4.7969	4796.9	0.50164
2082.8	4.8013	4801.3	0.50080
2080.8	4.8058	4805.8	0.49986
2078.9	4.8102	4810.2	0.49895
2077.0	4.8147	4814.7	0.49799
2075.1	4.8191	4819.1	0.49704
2073.1	4.8236	4823.6	0.49606
2071.2	4.8281	4828.1	0.49510
2069.3	4.8326	4832.6	0.49403
2067.4	4.8371	4837.1	0.49297
2065.4	4.8416	4841.6	0.49184
2063.5	4.8462	4846.2	0.49069
2061.6	4.8507	4850.7	0.48943
2059.6	4.8553	4855.3	0.48820
2057.7	4.8598	4859.8	0.48687
2055.8	4.8644	4864.4	0.48551
2053.9	4.8689	4868.9	0.48396
2051.9	4.8735	4873.5	0.48236
2050.0	4.8781	4878.1	0.48063
2048.0	4.8827	4882.7	0.47884
2046.1	4.8873	4887.3	0.47681
2044.2	4.8919	4891.9	0.47464
2042.3	4.8965	4896.5	0.47225
2040.4	4.9011	4901.1	0.46966
2038.4	4.9058	4905.8	0.46679
2036.5	4.9104	4910.4	0.46370
2034.5	4.9151	4915.1	0.46035
2032.6	4.9197	4919.7	0.45693
2030.7	4.9244	4924.4	0.45333
2028.8	4.9291	4929.1	0.44968
2026.8	4.9338	4933.8	0.44603
2024.9	4.9385	4938.5	0.44250
2023.0	4.9432	4943.2	0.43896
2021.1	4.9479	4947.9	0.43550
2019.1	4.9526	4952.6	0.43217
2017.2	4.9574	4957.4	0.42904
2015.3	4.9621	4962.1	0.42598
2013.3	4.9669	4966.9	0.42322
2011.4	4.9716	4971.6	0.42068
2009.5	4.9764	4976.4	0.41842
2007.5	4.9812	4981.2	0.41643
2005.6	4.9860	4986.0	0.41477
2003.7	4.9908	4990.8	0.41347
2001.8	4.9956	4995.6	0.41255
1999.8	5.0004	5000.4	0.41190
1997.9	5.0052	5005.2	0.41157
1996.0	5.0100	5010.0	0.41142
1994.1	5.0149	5014.9	0.41145
1992.1	5.0198	5019.8	0.41161
1990.2	5.0246	5024.6	0.41183
1988.3	5.0295	5029.5	0.41208
1986.3	5.0344	5034.4	0.41235
1984.4	5.0393	5039.3	0.41251
1982.5	5.0442	5044.2	0.41269
1980.6	5.0491	5049.1	0.41292
1978.6	5.0540	5054.0	0.41317
1976.7	5.0589	5058.9	0.41333
1974.8	5.0639	5063.9	0.41344
1972.9	5.0688	5068.8	0.41348
1970.9	5.0738	5073.8	0.41349
1969.0	5.0788	5078.8	0.41339
1967.1	5.0837	5083.7	0.41329
1965.1	5.0887	5088.7	0.41303
1963.2	5.0937	5093.7	0.41270
1961.3	5.0987	5098.7	0.41231
1959.4	5.1037	5103.7	0.41184
1957.4	5.1088	5108.8	0.41125
1955.5	5.1138	5113.8	0.41066
1953.5	5.1189	5118.9	0.40992
1951.6	5.1239	5123.9	0.40914
1949.7	5.1290	5129.0	0.40819
1947.8	5.1341	5134.1	0.40719
1945.9	5.1391	5139.1	0.40619
1943.9	5.1443	5144.3	0.40517
1942.0	5.1494	5149.4	0.40392
1940.1	5.1545	5154.5	0.40253
1938.1	5.1596	5159.6	0.40107
1936.2	5.1647	5164.7	0.39960
1934.3	5.1699	5169.9	0.39799
1932.4	5.1750	5175.0	0.39631
1930.4	5.1802	5180.2	0.39457
1928.5	5.1854	5185.4	0.39284
1926.6	5.1906	5190.6	0.39113
1924.6	5.1958	5195.8	0.38955
1922.7	5.2010	5201.0	0.38792
1920.8	5.2062	5206.2	0.38624
1918.8	5.2115	5211.5	0.38461
1916.9	5.2167	5216.7	0.38278
1915.0	5.2220	5222.0	0.38088
1913.1	5.2272	5227.2	0.37907
1911.1	5.2325	5232.5	0.37722
1909.2	5.2378	5237.8	0.37537
1907.3	5.2431	5243.1	0.37350
1905.3	5.2484	5248.4	0.37179
1903.4	5.2537	5253.7	0.37022
1901.5	5.2590	5259.0	0.36879
1899.6	5.2644	5264.4	0.36752
1897.6	5.2697	5269.7	0.36641
1895.7	5.2751	5275.1	0.36543
1893.8	5.2805	5280.5	0.36454
1891.9	5.2858	5285.8	0.36375
1889.9	5.2912	5291.2	0.36318
1888.0	5.2966	5296.6	0.36255
1886.1	5.3020	5302.0	0.36192
1884.1	5.3075	5307.5	0.36138
1882.2	5.3129	5312.9	0.36088
1880.3	5.3184	5318.4	0.36038
1878.4	5.3238	5323.8	0.35989
1876.4	5.3293	5329.3	0.35934
1874.5	5.3348	5334.8	0.35878
1872.6	5.3403	5340.3	0.35818
1870.6	5.3458	5345.8	0.35764
1868.7	5.3513	5351.3	0.35696
1866.8	5.3568	5356.8	0.35600
1864.8	5.3624	5362.4	0.35504
1862.9	5.3679	5367.9	0.35403
1861.0	5.3735	5373.5	0.35286
1859.1	5.3790	5379.0	0.35155
1857.1	5.3846	5384.6	0.35014
1855.2	5.3902	5390.2	0.34861
1853.3	5.3958	5395.8	0.34703
1851.3	5.4015	5401.5	0.34538
1849.4	5.4071	5407.1	0.34368
1847.5	5.4127	5412.7	0.34191
1845.6	5.4184	5418.4	0.34021
1843.6	5.4241	5424.1	0.33824
1841.7	5.4297	5429.7	0.33603
1839.8	5.4354	5435.4	0.33399
1837.9	5.4411	5441.1	0.33197
1835.9	5.4468	5446.8	0.32994
1834.0	5.4526	5452.6	0.32798
1832.1	5.4583	5458.3	0.32630
1830.1	5.4641	5464.1	0.32483
1828.2	5.4698	5469.8	0.32330
1826.3	5.4756	5475.6	0.32210
1824.4	5.4814	5481.4	0.32105
1822.4	5.4872	5487.2	0.32019
1820.5	5.4930	5493.0	0.31962
1818.6	5.4988	5498.8	0.31920
1816.6	5.5047	5504.7	0.31890
1814.7	5.5105	5510.5	0.31871
1812.8	5.5164	5516.4	0.31862
1810.8	5.5223	5522.3	0.31846
1808.9	5.5281	5528.1	0.31817
1807.0	5.5340	5534.0	0.31780
1805.1	5.5400	5540.0	0.31736
1803.1	5.5459	5545.9	0.31679
1801.2	5.5518	5551.8	0.31601
1799.3	5.5578	5557.8	0.31490
1797.4	5.5637	5563.7	0.31349
1795.4	5.5697	5569.7	0.31184
1793.5	5.5757	5575.7	0.30992
1791.6	5.5817	5581.7	0.30724
1789.6	5.5877	5587.7	0.30403
1787.7	5.5937	5593.7	0.30076
1785.8	5.5998	5599.8	0.29723
1783.9	5.6058	5605.8	0.29346
1781.9	5.6119	5611.9	0.28980
1780.0	5.6180	5618.0	0.28634
1778.1	5.6241	5624.1	0.28307
1776.1	5.6302	5630.2	0.28041
1774.2	5.6363	5636.3	0.27834
1772.3	5.6424	5642.4	0.27668
1770.4	5.6486	5648.6	0.27518
1768.4	5.6547	5654.7	0.27464
1766.5	5.6609	5660.9	0.27471
1764.6	5.6671	5667.1	0.27566
1762.6	5.6733	5673.3	0.27756
1760.7	5.6795	5679.5	0.28024
1758.8	5.6857	5685.7	0.28326
1756.9	5.6920	5692.0	0.28716
1754.9	5.6982	5698.2	0.29121
1753.0	5.7045	5704.5	0.29550
1751.1	5.7108	5710.8	0.30014
1749.1	5.7171	5717.1	0.30468
1747.2	5.7234	5723.4	0.30896
1745.3	5.7297	5729.7	0.31328
1743.3	5.7361	5736.1	0.31746
1741.4	5.7424	5742.4	0.32143
1739.5	5.7488	5748.8	0.32516
1737.6	5.7551	5755.1	0.32820
1735.7	5.7615	5761.5	0.33099
1733.7	5.7680	5768.0	0.33355
1731.8	5.7744	5774.4	0.33479
1729.9	5.7808	5780.8	0.33558
1727.9	5.7873	5787.3	0.33601
1726.0	5.7937	5793.7	0.33602
1724.1	5.8002	5800.2	0.33573
1722.1	5.8067	5806.7	0.33507
1720.2	5.8132	5813.2	0.33448
1718.3	5.8197	5819.7	0.33393
1716.4	5.8263	5826.3	0.33286
1714.4	5.8328	5832.8	0.33165
1712.5	5.8394	5839.4	0.33058
1710.6	5.8460	5846.0	0.32968
1708.6	5.8526	5852.6	0.32888
1706.7	5.8592	5859.2	0.32814
1704.8	5.8658	5865.8	0.32732
1702.9	5.8725	5872.5	0.32664
1700.9	5.8791	5879.1	0.32637
1699.0	5.8858	5885.8	0.32531
1697.1	5.8925	5892.5	0.32460
1695.1	5.8992	5899.2	0.32405
1693.2	5.9059	5905.9	0.32321
1691.3	5.9126	5912.6	0.32292
1689.4	5.9194	5919.4	0.32269
1687.4	5.9262	5926.2	0.32261
1685.5	5.9329	5932.9	0.32293
1683.6	5.9397	5939.7	0.32273
1681.7	5.9465	5946.5	0.32175
1679.7	5.9534	5953.4	0.32095
1677.8	5.9602	5960.2	0.32000
1675.9	5.9671	5967.1	0.31908
1673.9	5.9740	5974.0	0.31748
1672.0	5.9808	5980.8	0.31589
1670.1	5.9878	5987.8	0.31432
1668.1	5.9947	5994.7	0.31239
1666.2	6.0016	6001.6	0.31066
1664.3	6.0086	6008.6	0.30966
1662.4	6.0155	6015.5	0.30911
1660.4	6.0225	6022.5	0.30927
1658.5	6.0295	6029.5	0.31059
1656.6	6.0365	6036.5	0.31332
1654.6	6.0436	6043.6	0.31753
1652.7	6.0506	6050.6	0.32391
1650.8	6.0577	6057.7	0.32947
1648.9	6.0648	6064.8	0.33532
1646.9	6.0719	6071.9	0.34250
1645.0	6.0790	6079.0	0.34949
1643.1	6.0861	6086.1	0.35520
1641.1	6.0933	6093.3	0.36082
1639.2	6.1005	6100.5	0.36587
1637.3	6.1076	6107.6	0.37060
1635.3	6.1149	6114.9	0.37480
1633.4	6.1221	6122.1	0.37775
1631.5	6.1293	6129.3	0.37998
1629.6	6.1365	6136.5	0.38240
1627.7	6.1438	6143.8	0.38433
1625.7	6.1511	6151.1	0.38600
1623.8	6.1584	6158.4	0.38743
1621.9	6.1657	6165.7	0.38847
1620.0	6.1730	6173.0	0.38911
1618.0	6.1804	6180.4	0.39019
1616.1	6.1878	6187.8	0.39079
1614.2	6.1952	6195.2	0.39081
1612.2	6.2026	6202.6	0.39091
1610.3	6.2100	6210.0	0.39120
1608.4	6.2175	6217.5	0.39131
1606.4	6.2250	6225.0	0.39146
1604.5	6.2324	6232.4	0.39154
1602.6	6.2399	6239.9	0.39178
1600.6	6.2475	6247.5	0.39185
1598.7	6.2550	6255.0	0.39195
1596.8	6.2625	6262.5	0.39203
1594.9	6.2701	6270.1	0.39226
1592.9	6.2777	6277.7	0.39234
1591.0	6.2853	6285.3	0.39250
1589.1	6.2929	6292.9	0.39265
1587.2	6.3006	6300.6	0.39290
1585.2	6.3083	6308.3	0.39312
1583.3	6.3159	6315.9	0.39353
1581.4	6.3236	6323.6	0.39391
1579.4	6.3314	6331.4	0.39442
1577.5	6.3391	6339.1	0.39528
1575.6	6.3469	6346.9	0.39604
1573.7	6.3546	6354.6	0.39621
1571.7	6.3624	6362.4	0.39692
1569.8	6.3703	6370.3	0.39786
1567.9	6.3781	6378.1	0.39846
1565.9	6.3859	6385.9	0.39896
1564.0	6.3938	6393.8	0.39965
1562.1	6.4017	6401.7	0.40050
1560.2	6.4096	6409.6	0.40211
1558.2	6.4176	6417.6	0.40275
1556.3	6.4255	6425.5	0.40241
1554.4	6.4335	6433.5	0.40255
1552.4	6.4415	6441.5	0.40274
1550.5	6.4495	6449.5	0.40293
1548.6	6.4575	6457.5	0.40311
1546.6	6.4656	6465.6	0.40333
1544.7	6.4736	6473.6	0.40379
1542.8	6.4817	6481.7	0.40418
1540.9	6.4898	6489.8	0.40476
1538.9	6.4980	6498.0	0.40454
1537.0	6.5061	6506.1	0.40389
1535.1	6.5143	6514.3	0.40380
1533.2	6.5225	6522.5	0.40390
1531.2	6.5307	6530.7	0.40360
1529.3	6.5389	6538.9	0.40355
1527.4	6.5472	6547.2	0.40365
1525.4	6.5555	6555.5	0.40382
1523.5	6.5638	6563.8	0.40397
1521.6	6.5721	6572.1	0.40435
1519.7	6.5804	6580.4	0.40410
1517.7	6.5888	6588.8	0.40405
1515.8	6.5972	6597.2	0.40405
1513.9	6.6056	6605.6	0.40404
1511.9	6.6140	6614.0	0.40429
1510.0	6.6225	6622.5	0.40463
1508.1	6.6309	6630.9	0.40535
1506.2	6.6394	6639.4	0.40576
1504.2	6.6479	6647.9	0.40511
1502.3	6.6565	6656.5	0.40483
1500.4	6.6650	6665.0	0.40490
1498.4	6.6736	6673.6	0.40488
1496.5	6.6822	6682.2	0.40457
1494.6	6.6908	6690.8	0.40383
1492.6	6.6995	6699.5	0.40323
1490.7	6.7081	6708.1	0.40283
1488.8	6.7168	6716.8	0.40197
1486.9	6.7255	6725.5	0.40082
1484.9	6.7343	6734.3	0.39964
1483.0	6.7430	6743.0	0.39843
1481.1	6.7518	6751.8	0.39709
1479.2	6.7606	6760.6	0.39557
1477.2	6.7694	6769.4	0.39410
1475.3	6.7783	6778.3	0.39254
1473.4	6.7871	6787.1	0.39084
1471.5	6.7960	6796.0	0.38846
1469.5	6.8050	6805.0	0.38611
1467.6	6.8139	6813.9	0.38427
1465.7	6.8229	6822.9	0.38278
1463.7	6.8319	6831.9	0.38116
1461.8	6.8409	6840.9	0.37969
1459.9	6.8499	6849.9	0.37885
1457.9	6.8590	6859.0	0.37846
1456.0	6.8680	6868.0	0.37740
1454.1	6.8772	6877.2	0.37618
1452.2	6.8863	6886.3	0.37551
1450.2	6.8955	6895.5	0.37508
1448.3	6.9046	6904.6	0.37479
1446.4	6.9138	6913.8	0.37431
1444.4	6.9231	6923.1	0.37375
1442.5	6.9323	6932.3	0.37315
1440.6	6.9416	6941.6	0.37239
1438.7	6.9509	6950.9	0.37176
1436.7	6.9602	6960.2	0.37095
1434.8	6.9696	6969.6	0.36947
1432.9	6.9790	6979.0	0.36809
1430.9	6.9884	6988.4	0.36672
1429.0	6.9978	6997.8	0.36509
1427.1	7.0073	7007.3	0.36333
1425.2	7.0168	7016.8	0.36154
1423.2	7.0263	7026.3	0.35958
1421.3	7.0358	7035.8	0.35771
1419.4	7.0454	7045.4	0.35590
1417.5	7.0549	7054.9	0.35352
1415.5	7.0645	7064.5	0.35134
1413.6	7.0742	7074.2	0.34944
1411.7	7.0839	7083.9	0.34777
1409.7	7.0935	7093.5	0.34612
1407.8	7.1033	7103.3	0.34468
1405.9	7.1130	7113.0	0.34350
1403.9	7.1228	7122.8	0.34255
1402.0	7.1326	7132.6	0.34163
1400.1	7.1424	7142.4	0.34094
1398.2	7.1522	7152.2	0.34017
1396.2	7.1621	7162.1	0.33946
1394.3	7.1720	7172.0	0.33864
1392.4	7.1820	7182.0	0.33757
1390.5	7.1919	7191.9	0.33652
1388.5	7.2019	7201.9	0.33549
1386.6	7.2119	7211.9	0.33402
1384.7	7.2220	7222.0	0.33239
1382.7	7.2320	7232.0	0.33084
1380.8	7.2421	7242.1	0.32933
1378.9	7.2523	7252.3	0.32781
1377.0	7.2624	7262.4	0.32648
1375.0	7.2726	7272.6	0.32527
1373.1	7.2828	7282.8	0.32405
1371.2	7.2931	7293.1	0.32285
1369.2	7.3033	7303.3	0.32177
1367.3	7.3136	7313.6	0.32060
1365.4	7.3240	7324.0	0.31950
1363.5	7.3343	7334.3	0.31833
1361.5	7.3447	7344.7	0.31699
1359.6	7.3551	7355.1	0.31539
1357.7	7.3656	7365.6	0.31373
1355.7	7.3761	7376.1	0.31187
1353.8	7.3866	7386.6	0.30995
1351.9	7.3971	7397.1	0.30788
1349.9	7.4077	7407.7	0.30583
1348.0	7.4183	7418.3	0.30373
1346.1	7.4289	7428.9	0.30174
1344.2	7.4396	7439.6	0.29965
1342.2	7.4503	7450.3	0.29756
1340.3	7.4610	7461.0	0.29538
1338.4	7.4717	7471.7	0.29317
1336.5	7.4825	7482.5	0.29084
1334.5	7.4933	7493.3	0.28860
1332.6	7.5042	7504.2	0.28639
1330.7	7.5150	7515.0	0.28433
1328.7	7.5259	7525.9	0.28222
1326.8	7.5369	7536.9	0.28029
1324.9	7.5479	7547.9	0.27837
1322.9	7.5589	7558.9	0.27667
1321.0	7.5699	7569.9	0.27505
1319.1	7.5810	7581.0	0.27365
1317.2	7.5920	7592.0	0.27230
1315.2	7.6032	7603.2	0.27117
1313.3	7.6143	7614.3	0.27017
1311.4	7.6255	7625.5	0.26949
1309.4	7.6368	7636.8	0.26902
1307.5	7.6480	7648.0	0.26880
1305.6	7.6593	7659.3	0.26851
1303.7	7.6707	7670.7	0.26840
1301.7	7.6820	7682.0	0.26827
1299.8	7.6934	7693.4	0.26823
1297.9	7.7049	7704.9	0.26793
1296.0	7.7163	7716.3	0.26748
1294.0	7.7278	7727.8	0.26683
1292.1	7.7394	7739.4	0.26615
1290.2	7.7509	7750.9	0.26514
1288.2	7.7625	7762.5	0.26398
1286.3	7.7742	7774.2	0.26256
1284.4	7.7858	7785.8	0.26093
1282.5	7.7975	7797.5	0.25903
1280.5	7.8093	7809.3	0.25708
1278.6	7.8211	7821.1	0.25495
1276.7	7.8329	7832.9	0.25271
1274.7	7.8447	7844.7	0.25017
1272.8	7.8566	7856.6	0.24761
1270.9	7.8685	7868.5	0.24487
1269.0	7.8805	7880.5	0.24208
1267.0	7.8925	7892.5	0.23903
1265.1	7.9045	7904.5	0.23585
1263.2	7.9166	7916.6	0.23235
1261.2	7.9287	7928.7	0.22877
1259.3	7.9408	7940.8	0.22489
1257.4	7.9530	7953.0	0.22099
1255.5	7.9652	7965.2	0.21690
1253.5	7.9775	7977.5	0.21287
1251.6	7.9898	7989.8	0.20875
1249.7	8.0021	8002.1	0.20482
1247.7	8.0145	8014.5	0.20091
1245.8	8.0269	8026.9	0.19727
1243.9	8.0393	8039.3	0.19358
1242.0	8.0518	8051.8	0.19011
1240.0	8.0643	8064.3	0.18666
1238.1	8.0769	8076.9	0.18346
1236.2	8.0895	8089.5	0.18022
1234.2	8.1021	8102.1	0.17722
1232.3	8.1148	8114.8	0.17429
1230.4	8.1275	8127.5	0.17157
1228.5	8.1403	8140.3	0.16880
1226.5	8.1531	8153.1	0.16631
1224.6	8.1659	8165.9	0.16377
1222.7	8.1788	8178.8	0.16135
1220.7	8.1917	8191.7	0.15893
1218.8	8.2047	8204.7	0.15676
1216.9	8.2177	8217.7	0.15442
1215.0	8.2307	8230.7	0.15226
1213.0	8.2438	8243.8	0.15007
1211.1	8.2570	8257.0	0.14810
1209.2	8.2701	8270.1	0.14607
1207.2	8.2833	8283.3	0.14421
1205.3	8.2966	8296.6	0.14222
1203.4	8.3099	8309.9	0.14044
1201.5	8.3232	8323.2	0.13855
1199.5	8.3366	8336.6	0.13681
1197.6	8.3500	8350.0	0.13493
1195.7	8.3635	8363.5	0.13322
1193.7	8.3770	8377.0	0.13133
1191.8	8.3905	8390.5	0.12955
1189.9	8.4042	8404.2	0.12768
1188.0	8.4178	8417.8	0.12591
1186.0	8.4315	8431.5	0.12400
1184.1	8.4452	8445.2	0.12216
1182.2	8.4590	8459.0	0.12017
1180.2	8.4728	8472.8	0.11829
1178.3	8.4867	8486.7	0.11627
1176.4	8.5006	8500.6	0.11440
1174.5	8.5145	8514.5	0.11242
1172.5	8.5285	8528.5	0.11059
1170.6	8.5426	8542.6	0.10867
1168.7	8.5567	8556.7	0.10690
1166.8	8.5708	8570.8	0.10503
1164.8	8.5850	8585.0	0.10332
1162.9	8.5993	8599.3	0.10138
1161.0	8.6135	8613.5	0.099570
1159.0	8.6279	8627.9	0.097630
1157.1	8.6423	8642.3	0.095800
1155.2	8.6567	8656.7	0.093710
1153.2	8.6712	8671.2	0.091740
1151.3	8.6857	8685.7	0.089570
1149.4	8.7003	8700.3	0.087490
1147.5	8.7149	8714.9	0.085300
1145.5	8.7295	8729.5	0.083100
1143.6	8.7443	8744.3	0.080630
1141.7	8.7590	8759.0	0.078280
1139.7	8.7739	8773.9	0.075770
1137.8	8.7887	8788.7	0.073470
1135.9	8.8037	8803.7	0.071070
1134.0	8.8186	8818.6	0.068890
1132.0	8.8337	8833.7	0.066660
1130.1	8.8487	8848.7	0.064630
1128.2	8.8638	8863.8	0.062420
1126.3	8.8790	8879.0	0.060360
1124.3	8.8943	8894.3	0.058220
1122.4	8.9095	8909.5	0.056360
1120.5	8.9249	8924.9	0.054430
1118.5	8.9403	8940.3	0.052870
1116.6	8.9557	8955.7	0.051390
1114.7	8.9712	8971.2	0.050290
1112.7	8.9868	8986.8	0.049310
1110.8	9.0023	9002.3	0.048800
1108.9	9.0180	9018.0	0.048340
1107.0	9.0337	9033.7	0.048180
1105.0	9.0495	9049.5	0.048010
1103.1	9.0653	9065.3	0.048230
1101.2	9.0812	9081.2	0.048440
1099.3	9.0971	9097.1	0.048980
1097.3	9.1131	9113.1	0.049650
1095.4	9.1291	9129.1	0.050690
1093.5	9.1452	9145.2	0.051810
1091.5	9.1614	9161.4	0.053340
1089.6	9.1776	9177.6	0.055080
1087.7	9.1939	9193.9	0.057380
1085.8	9.2102	9210.2	0.059860
1083.8	9.2266	9226.6	0.062810
1081.9	9.2430	9243.0	0.066000
1080.0	9.2595	9259.5	0.069770
1078.0	9.2761	9276.1	0.073770
1076.1	9.2927	9292.7	0.078180
1074.2	9.3094	9309.4	0.082750
1072.2	9.3262	9326.2	0.087740
1070.3	9.3430	9343.0	0.092910
1068.4	9.3598	9359.8	0.098340
1066.5	9.3768	9376.8	0.10372
1064.5	9.3938	9393.8	0.10913
1062.6	9.4108	9410.8	0.11392
1060.7	9.4279	9427.9	0.11808
1058.8	9.4451	9445.1	0.12114
1056.8	9.4623	9462.3	0.12312
1054.9	9.4796	9479.6	0.12389
1053.0	9.4970	9497.0	0.12402
1051.0	9.5144	9514.4	0.12355
1049.1	9.5319	9531.9	0.12290
1047.2	9.5494	9549.4	0.12195
1045.3	9.5670	9567.0	0.12093
1043.3	9.5847	9584.7	0.11967
1041.4	9.6025	9602.5	0.11849
1039.5	9.6203	9620.3	0.11716
1037.5	9.6382	9638.2	0.11592
1035.6	9.6561	9656.1	0.11448
1033.7	9.6742	9674.2	0.11305
1031.8	9.6922	9692.2	0.11150
1029.8	9.7104	9710.4	0.11003
1027.9	9.7286	9728.6	0.10857
1026.0	9.7469	9746.9	0.10718
1024.0	9.7652	9765.2	0.10552
1022.1	9.7837	9783.7	0.10411
1020.2	9.8022	9802.2	0.10262
1018.3	9.8207	9820.7	0.10118
1016.3	9.8394	9839.4	0.099630
1014.4	9.8581	9858.1	0.098330
1012.5	9.8768	9876.8	0.096970
1010.5	9.8957	9895.7	0.095630
1008.6	9.9146	9914.6	0.094250
1006.7	9.9336	9933.6	0.093320
1004.8	9.9527	9952.7	0.092380
1002.8	9.9718	9971.8	0.091360
1000.9	9.9910	9991.0	0.090350
998.97	10.010	10010	0.089670
997.04	10.030	10030	0.089030
995.11	10.049	10049	0.088660
993.19	10.069	10069	0.088490
991.26	10.088	10088	0.088690
989.33	10.108	10108	0.089080
987.40	10.128	10128	0.089960
985.46	10.148	10147	0.091100
983.55	10.167	10167	0.092540
981.61	10.187	10187	0.093880
979.68	10.207	10207	0.094960
977.76	10.227	10228	0.095310
975.83	10.248	10248	0.095030
973.90	10.268	10268	0.093930
971.97	10.288	10288	0.092080
970.05	10.309	10309	0.089470
968.11	10.329	10329	0.086860
966.18	10.350	10350	0.084440
964.26	10.371	10371	0.082880
962.32	10.392	10392	0.082490
960.40	10.412	10412	0.083510
958.47	10.433	10433	0.085330
956.54	10.454	10454	0.087490
954.62	10.475	10475	0.088960
952.68	10.497	10497	0.090860
950.76	10.518	10518	0.095260
948.83	10.539	10539	0.10255
946.90	10.561	10561	0.11007
944.97	10.582	10582	0.11621
943.04	10.604	10604	0.12078
941.11	10.626	10626	0.12416
939.19	10.648	10647	0.12630
937.26	10.669	10669	0.12768
935.33	10.691	10691	0.12815
933.40	10.714	10714	0.12818
931.47	10.736	10736	0.12791
929.54	10.758	10758	0.12747
927.62	10.780	10780	0.12682
925.69	10.803	10803	0.12620
923.75	10.825	10825	0.12538
921.83	10.848	10848	0.12464
919.90	10.871	10871	0.12390
917.97	10.894	10894	0.12320
916.04	10.917	10917	0.12235
914.12	10.939	10940	0.12170
912.18	10.963	10963	0.12105
910.26	10.986	10986	0.12042
908.33	11.009	11009	0.11967
906.40	11.033	11033	0.11910
904.47	11.056	11056	0.11847
902.54	11.080	11080	0.11793
900.62	11.104	11104	0.11727
898.68	11.127	11127	0.11674
896.76	11.151	11151	0.11606
894.83	11.175	11175	0.11547
892.90	11.200	11200	0.11481
890.97	11.224	11224	0.11415
889.05	11.248	11248	0.11325
887.11	11.273	11272	0.11221
885.18	11.297	11297	0.11081
883.26	11.322	11322	0.10923
881.33	11.347	11347	0.10720
879.40	11.371	11371	0.10484
877.47	11.396	11396	0.10222
875.54	11.422	11422	0.099610
873.61	11.447	11447	0.096430
871.69	11.472	11472	0.092890
869.75	11.498	11497	0.088970
867.83	11.523	11523	0.084730
865.90	11.549	11549	0.080350
863.98	11.574	11574	0.076580
862.05	11.600	11600	0.073350
860.12	11.626	11626	0.070660
858.18	11.653	11653	0.068340
856.26	11.679	11679	0.066490
854.33	11.705	11705	0.064780
852.40	11.732	11732	0.063250
850.47	11.758	11758	0.061620
848.54	11.785	11785	0.059950
846.62	11.812	11812	0.057710
844.69	11.839	11839	0.055350
842.76	11.866	11866	0.053570
840.83	11.893	11893	0.053450
838.91	11.920	11920	0.054960
836.97	11.948	11948	0.057390
835.05	11.975	11975	0.059520
833.12	12.003	12003	0.061210
831.19	12.031	12031	0.062490
829.26	12.059	12059	0.064100
827.33	12.087	12087	0.066070
825.40	12.115	12115	0.068530
823.47	12.144	12144	0.071240
821.54	12.172	12172	0.074580
819.62	12.201	12201	0.078090
817.69	12.230	12230	0.081970
815.76	12.259	12258	0.086150
813.83	12.288	12288	0.090290
811.90	12.317	12317	0.094020
809.97	12.346	12346	0.097760
808.05	12.375	12376	0.10127
806.11	12.405	12405	0.10472
804.19	12.435	12435	0.10823
802.26	12.465	12465	0.11184
800.33	12.495	12495	0.11534
798.40	12.525	12525	0.11894
796.48	12.555	12555	0.12253
794.55	12.586	12586	0.12596
792.62	12.616	12616	0.12920
790.69	12.647	12647	0.13243
788.76	12.678	12678	0.13545
786.83	12.709	12709	0.13842
784.90	12.740	12740	0.14121
782.97	12.772	12772	0.14380
781.05	12.803	12803	0.14604
779.12	12.835	12835	0.14827
777.19	12.867	12867	0.15032
775.26	12.899	12899	0.15222
773.33	12.931	12931	0.15388
771.40	12.963	12963	0.15530
769.47	12.996	12996	0.15635
767.55	13.028	13028	0.15711
765.62	13.061	13061	0.15789
763.69	13.094	13094	0.15853
761.76	13.127	13128	0.15885
759.83	13.161	13161	0.15897
757.90	13.194	13194	0.15893
755.97	13.228	13228	0.15868
754.05	13.262	13262	0.15805
752.12	13.296	13296	0.15746
750.19	13.330	13330	0.15683
748.26	13.364	13364	0.15608
746.34	13.399	13399	0.15510
744.40	13.434	13434	0.15402
742.47	13.469	13469	0.15281
740.55	13.503	13504	0.15140
738.62	13.539	13539	0.14966
736.69	13.574	13574	0.14787
734.76	13.610	13610	0.14625
732.83	13.646	13646	0.14464
730.90	13.682	13682	0.14289
728.97	13.718	13718	0.14152
727.05	13.754	13754	0.14025
725.12	13.791	13791	0.13888
723.19	13.828	13828	0.13735
721.26	13.865	13865	0.13586
719.33	13.902	13902	0.13447
717.40	13.939	13939	0.13314
715.48	13.977	13977	0.13142
713.55	14.014	14015	0.12958
711.62	14.052	14053	0.12783
709.69	14.091	14091	0.12611
707.76	14.129	14129	0.12410
705.84	14.168	14168	0.12211
703.90	14.207	14207	0.11974
701.98	14.245	14245	0.11748
700.05	14.285	14285	0.11532
698.12	14.324	14324	0.11288
696.19	14.364	14364	0.11025
694.26	14.404	14404	0.10781
692.33	14.444	14444	0.10544
690.40	14.484	14484	0.10275
688.48	14.525	14525	0.10003
686.55	14.566	14566	0.097300
684.62	14.607	14607	0.094610
682.69	14.648	14648	0.091790
680.76	14.689	14689	0.089000
678.83	14.731	14731	0.086170
676.91	14.773	14773	0.083490
674.98	14.815	14815	0.080820
673.05	14.858	14858	0.078130
671.12	14.901	14900	0.075750
669.19	14.943	14943	0.073140
667.26	14.987	14987	0.070400
665.34	15.030	15030	0.068200
663.41	15.074	15074	0.065880
661.48	15.118	15118	0.063230
659.55	15.162	15162	0.060830
657.62	15.206	15206	0.058590
655.69	15.251	15251	0.056640
653.76	15.296	15296	0.054850
651.84	15.341	15341	0.053050
649.91	15.387	15387	0.051070
647.98	15.433	15433	0.049530
646.05	15.479	15479	0.048360
644.12	15.525	15525	0.047360
642.19	15.572	15572	0.046640
640.26	15.619	15619	0.046100
638.33	15.666	15666	0.046340
636.41	15.713	15713	0.046670
634.48	15.761	15761	0.046850
632.55	15.809	15809	0.047010
630.62	15.857	15857	0.047290
628.69	15.906	15906	0.047810
626.76	15.955	15955	0.048460
624.84	16.004	16004	0.049120
622.91	16.054	16054	0.049360
620.98	16.104	16104	0.049280
619.05	16.154	16154	0.049420
617.12	16.204	16204	0.049550
615.19	16.255	16255	0.048990
613.26	16.306	16306	0.048110
611.34	16.358	16358	0.047410
609.41	16.409	16409	0.046790
607.48	16.462	16462	0.046260
605.55	16.514	16514	0.045660
603.62	16.567	16567	0.044940
601.69	16.620	16620	0.044470
599.76	16.673	16673	0.043770
597.84	16.727	16727	0.043080
595.91	16.781	16781	0.042840
593.98	16.836	16836	0.042410
592.05	16.890	16891	0.042020
590.12	16.946	16946	0.041890
588.19	17.001	17001	0.041500
586.26	17.057	17057	0.041470
584.34	17.113	17113	0.041570
582.41	17.170	17170	0.041130
580.48	17.227	17227	0.040940
578.55	17.285	17285	0.041050
576.62	17.342	17342	0.041150
574.69	17.401	17401	0.041220
572.76	17.459	17459	0.041160
570.83	17.518	17518	0.041020
568.91	17.578	17578	0.041190
566.98	17.637	17637	0.041850
565.05	17.698	17697	0.043770
563.12	17.758	17758	0.045630
561.19	17.819	17819	0.047160
559.27	17.881	17881	0.050310
557.34	17.942	17943	0.053740
555.41	18.005	18005	0.056370
553.48	18.067	18068	0.059780
551.55	18.131	18131	0.062920
549.62	18.194	18194	0.065220
547.69	18.258	18258	0.067600
545.77	18.323	18323	0.069440
543.84	18.388	18388	0.070790
541.91	18.453	18453	0.072290
539.98	18.519	18519	0.072820
538.05	18.586	18586	0.072750
536.12	18.652	18652	0.072610
534.19	18.720	18720	0.072430
532.27	18.788	18788	0.072130
530.34	18.856	18856	0.072010
528.41	18.925	18925	0.071960
526.48	18.994	18994	0.072360
524.55	19.064	19064	0.072550
522.62	19.134	19134	0.072660
520.70	19.205	19205	0.072850
518.77	19.277	19277	0.072320
516.84	19.348	19348	0.070980
514.91	19.421	19421	0.069300
512.98	19.494	19494	0.067150
511.05	19.567	19568	0.064940
509.12	19.642	19642	0.062880
507.19	19.716	19716	0.061640
505.26	19.792	19792	0.060930
503.34	19.867	19867	0.060590
501.41	19.944	19944	0.061790
499.48	20.021	20021	0.063700
497.55	20.098	20098	0.065420
495.62	20.177	20177	0.066830
493.70	20.255	20255	0.066840
491.77	20.335	20335	0.065830
489.84	20.415	20415	0.063730
487.91	20.496	20496	0.060810
485.98	20.577	20577	0.057960
484.05	20.659	20659	0.055510
482.12	20.742	20742	0.053030
480.20	20.825	20825	0.050030
478.27	20.909	20909	0.046840
476.34	20.993	20994	0.043250
474.41	21.079	21079	0.041310
472.48	21.165	21165	0.040470
470.55	21.252	21252	0.039560
468.62	21.339	21339	0.039190
466.70	21.427	21427	0.039280
464.77	21.516	21516	0.039020
462.84	21.606	21606	0.039350
460.91	21.696	21696	0.039950
458.98	21.787	21787	0.039290
457.05	21.879	21879	0.039230
455.12	21.972	21972	0.039690
453.20	22.065	22065	0.039280
451.27	22.160	22160	0.038450
449.34	22.255	22255	0.037400
447.41	22.351	22351	0.036650
445.48	22.448	22447	0.037090
443.56	22.545	22545	0.039370
441.63	22.644	22644	0.042340
439.70	22.743	22743	0.045610
437.77	22.843	22843	0.050320
435.84	22.944	22944	0.055570
433.91	23.046	23046	0.059300
431.98	23.149	23149	0.062090
430.06	23.253	23253	0.065870
428.13	23.358	23358	0.069850
426.20	23.463	23463	0.072930
424.27	23.570	23570	0.076580
422.34	23.677	23677	0.081090
420.41	23.786	23786	0.084960
418.48	23.896	23896	0.089050
416.56	24.006	24006	0.093520
414.63	24.118	24118	0.097570
412.70	24.231	24231	0.10042
410.77	24.344	24344	0.10215
408.84	24.459	24459	0.10258
406.91	24.575	24575	0.10173
404.98	24.692	24692	0.099450
403.06	24.810	24810	0.097130
401.13	24.930	24930	0.095150
399.20	25.050	25050	0.093630
397.27	25.172	25172	0.090790
395.34	25.295	25294	0.087080
393.41	25.419	25419	0.083510
391.49	25.544	25544	0.079250
389.56	25.670	25670	0.075280
387.63	25.798	25798	0.073040
385.70	25.927	25927	0.070770
383.77	26.057	26057	0.067900
381.84	26.189	26189	0.065210
379.91	26.322	26322	0.062450
377.99	26.456	26456	0.060810
376.06	26.592	26592	0.060400
374.13	26.729	26729	0.060030
372.20	26.867	26867	0.061260
370.27	27.007	27007	0.063940
368.34	27.149	27149	0.066510
366.41	27.292	27292	0.068150
364.49	27.436	27436	0.071550
362.56	27.582	27582	0.075500
360.63	27.729	27729	0.077700
358.70	27.878	27878	0.078910
356.77	28.029	28029	0.080570
354.84	28.181	28181	0.080690
352.92	28.335	28335	0.080500
350.99	28.491	28491	0.080500
349.06	28.649	28649	0.080950
347.13	28.808	28808	0.080860
345.20	28.969	28969	0.080070
343.27	29.131	29131	0.079700
341.34	29.296	29296	0.079600
339.42	29.462	29462	0.078870
337.49	29.631	29631	0.078020
335.56	29.801	29801	0.077720
333.63	29.973	29973	0.076500
331.70	30.147	30148	0.075220
329.77	30.324	30324	0.074840
327.85	30.502	30502	0.073750
325.92	30.683	30683	0.072280
323.99	30.865	30865	0.073300
322.06	31.050	31050	0.072810
320.13	31.237	31237	0.070900
318.20	31.427	31426	0.069290
316.27	31.618	31618	0.068240
314.35	31.812	31812	0.067810
312.42	32.008	32008	0.066860
310.49	32.207	32207	0.065750
308.56	32.409	32409	0.065270
306.63	32.612	32612	0.064180
304.70	32.819	32819	0.061970
302.77	33.028	33028	0.060170
300.85	33.240	33240	0.060200
298.92	33.454	33454	0.059890
296.99	33.671	33671	0.059570
295.06	33.891	33891	0.059870
293.13	34.114	34114	0.060820
291.20	34.340	34340	0.062780
289.27	34.569	34569	0.065450
287.35	34.801	34801	0.066320
285.42	35.036	35036	0.066530
283.49	35.275	35275	0.068120
281.56	35.516	35516	0.071210
279.63	35.761	35761	0.071140
277.70	36.010	36010	0.068740
275.78	36.261	36261	0.067600
273.85	36.517	36517	0.066880
271.92	36.776	36776	0.066670
269.99	37.038	37038	0.066480
268.06	37.305	37305	0.066080
266.13	37.575	37575	0.069290
264.20	37.849	37849	0.071080
262.28	38.128	38128	0.069840
260.35	38.410	38410	0.069520
258.42	38.697	38697	0.070780
256.49	38.988	38988	0.070610
254.56	39.283	39283	0.071520
252.63	39.583	39583	0.071330
250.71	39.888	39888	0.070750
248.78	40.197	40197	0.070950
246.85	40.511	40511	0.074330
244.92	40.830	40830	0.073600
242.99	41.154	41154	0.073340
241.06	41.483	41483	0.074250
239.13	41.818	41818	0.074870
237.21	42.158	42157	0.076470
235.28	42.503	42503	0.078710
233.35	42.854	42854	0.080430
231.42	43.211	43211	0.082160
229.49	43.575	43575	0.081470
227.56	43.944	43944	0.080160
225.63	44.319	44319	0.085460
223.71	44.701	44701	0.088530
221.78	45.090	45090	0.090790
219.85	45.486	45486	0.092630
217.92	45.888	45888	0.092090
215.99	46.298	46298	0.094500
214.06	46.715	46715	0.10032
212.13	47.140	47140	0.10117
210.21	47.572	47572	0.10346
208.28	48.013	48013	0.10705
206.35	48.461	48461	0.10653
204.42	48.919	48919	0.10419
202.49	49.385	49385	0.10757
200.56	49.859	49859	0.10855
