Wavenumber (cm-1)	Wavelength (Âµm)	Wavelength (nm)	SynOl_Fo50
33333	0.30000	300.00	0.060000
32787	0.30500	305.00	0.060640
32258	0.31000	310.00	0.059670
31746	0.31500	315.00	0.062360
31250	0.32000	320.00	0.067630
30769	0.32500	325.00	0.071540
30303	0.33000	330.00	0.077810
29851	0.33500	335.00	0.085400
29412	0.34000	340.00	0.096180
28986	0.34500	345.00	0.10901
28571	0.35000	350.00	0.12656
28169	0.35500	355.00	0.14759
27778	0.36000	360.00	0.17141
27397	0.36500	365.00	0.19900
27027	0.37000	370.00	0.22733
26667	0.37500	375.00	0.25567
26316	0.38000	380.00	0.28224
25974	0.38500	385.00	0.30699
25641	0.39000	390.00	0.33060
25316	0.39500	395.00	0.34941
25000	0.40000	400.00	0.35307
24691	0.40500	405.00	0.36675
24390	0.41000	410.00	0.39155
24096	0.41500	415.00	0.40388
23810	0.42000	420.00	0.41123
23529	0.42500	425.00	0.41622
23256	0.43000	430.00	0.42026
22989	0.43500	435.00	0.42529
22727	0.44000	440.00	0.43012
22472	0.44500	445.00	0.42862
22222	0.45000	450.00	0.42122
21978	0.45500	455.00	0.42134
21739	0.46000	460.00	0.42957
21505	0.46500	465.00	0.43931
21277	0.47000	470.00	0.44471
21053	0.47500	475.00	0.45806
20833	0.48000	480.00	0.47232
20619	0.48500	485.00	0.47687
20408	0.49000	490.00	0.47872
20202	0.49500	495.00	0.47796
20000	0.50000	500.00	0.48854
19802	0.50500	505.00	0.50448
19608	0.51000	510.00	0.51664
19417	0.51500	515.00	0.52515
19231	0.52000	520.00	0.52982
19048	0.52500	525.00	0.53368
18868	0.53000	530.00	0.53846
18692	0.53500	535.00	0.54706
18519	0.54000	540.00	0.55555
18349	0.54500	545.00	0.56321
18182	0.55000	550.00	0.56923
18018	0.55500	555.00	0.57107
17857	0.56000	560.00	0.57482
17699	0.56500	565.00	0.57653
17544	0.57000	570.00	0.57829
17391	0.57500	575.00	0.57795
17241	0.58000	580.00	0.57856
17094	0.58500	585.00	0.57931
16949	0.59000	590.00	0.57937
16807	0.59500	595.00	0.58013
16667	0.60000	600.00	0.57991
16529	0.60500	605.00	0.57780
16393	0.61000	610.00	0.57799
16260	0.61500	615.00	0.57765
16129	0.62000	620.00	0.57688
16000	0.62500	625.00	0.57691
15873	0.63000	630.00	0.57924
15748	0.63500	635.00	0.58147
15625	0.64000	640.00	0.58485
15504	0.64500	645.00	0.58857
15385	0.65000	650.00	0.59224
15267	0.65500	655.00	0.59403
15152	0.66000	660.00	0.59537
15038	0.66500	665.00	0.59662
14925	0.67000	670.00	0.59655
14815	0.67500	675.00	0.59508
14706	0.68000	680.00	0.59427
14599	0.68500	685.00	0.59174
14493	0.69000	690.00	0.58849
14388	0.69500	695.00	0.58623
14286	0.70000	700.00	0.58295
14184	0.70500	705.00	0.57820
14085	0.71000	710.00	0.57345
13986	0.71500	715.00	0.56987
13889	0.72000	720.00	0.56434
13793	0.72500	725.00	0.55880
13699	0.73000	730.00	0.55320
13605	0.73500	735.00	0.54759
13514	0.74000	740.00	0.54166
13423	0.74500	745.00	0.53537
13333	0.75000	750.00	0.52990
13245	0.75500	755.00	0.52328
13158	0.76000	760.00	0.51710
13072	0.76500	765.00	0.50977
12987	0.77000	770.00	0.50257
12903	0.77500	775.00	0.49597
12821	0.78000	780.00	0.48841
12739	0.78500	785.00	0.48132
12658	0.79000	790.00	0.47428
12579	0.79500	795.00	0.46725
12500	0.80000	800.00	0.46189
12422	0.80500	805.00	0.45313
12346	0.81000	810.00	0.44642
12270	0.81500	815.00	0.43992
12195	0.82000	820.00	0.43338
12121	0.82500	825.00	0.42739
12048	0.83000	830.00	0.42086
11976	0.83500	835.00	0.41546
11905	0.84000	840.00	0.40999
11834	0.84500	845.00	0.40561
11765	0.85000	850.00	0.40025
11696	0.85500	855.00	0.39417
11628	0.86000	860.00	0.39062
11561	0.86500	865.00	0.38619
11494	0.87000	870.00	0.38255
11429	0.87500	875.00	0.37848
11364	0.88000	880.00	0.37510
11299	0.88500	885.00	0.37167
11236	0.89000	890.00	0.36833
11173	0.89500	895.00	0.36570
11111	0.90000	900.00	0.36258
11050	0.90500	905.00	0.36201
10989	0.91000	910.00	0.35880
10929	0.91500	915.00	0.35588
10870	0.92000	920.00	0.35296
10811	0.92500	925.00	0.34980
10753	0.93000	930.00	0.34718
10695	0.93500	935.00	0.34340
10638	0.94000	940.00	0.33980
10582	0.94500	945.00	0.33672
10526	0.95000	950.00	0.33314
10471	0.95500	955.00	0.32720
10417	0.96000	960.00	0.32436
10363	0.96500	965.00	0.32032
10309	0.97000	970.00	0.31611
10256	0.97500	975.00	0.31277
10204	0.98000	980.00	0.30803
10152	0.98500	985.00	0.30437
10101	0.99000	990.00	0.30058
10050	0.99500	995.00	0.29699
10000	1.0000	1000.0	0.29286
9950.2	1.0050	1005.0	0.28877
9901.0	1.0100	1010.0	0.28518
9852.2	1.0150	1015.0	0.28234
9803.9	1.0200	1020.0	0.27954
9756.1	1.0250	1025.0	0.27709
9708.7	1.0300	1030.0	0.27455
9661.8	1.0350	1035.0	0.27259
9615.4	1.0400	1040.0	0.27018
9569.4	1.0450	1045.0	0.26865
9523.8	1.0500	1050.0	0.26705
9478.7	1.0550	1055.0	0.26643
9434.0	1.0600	1060.0	0.26591
9389.7	1.0650	1065.0	0.26567
9345.8	1.0700	1070.0	0.26532
9302.3	1.0750	1075.0	0.26558
9259.3	1.0800	1080.0	0.26652
9216.6	1.0850	1085.0	0.26772
9174.3	1.0900	1090.0	0.26898
9132.4	1.0950	1095.0	0.27082
9090.9	1.1000	1100.0	0.27243
9049.8	1.1050	1105.0	0.27494
9009.0	1.1100	1110.0	0.27705
8968.6	1.1150	1115.0	0.27993
8928.6	1.1200	1120.0	0.28230
8888.9	1.1250	1125.0	0.28447
8849.6	1.1300	1130.0	0.28794
8810.6	1.1350	1135.0	0.29197
8771.9	1.1400	1140.0	0.29325
8733.6	1.1450	1145.0	0.29696
8695.7	1.1500	1150.0	0.29914
8658.0	1.1550	1155.0	0.30145
8620.7	1.1600	1160.0	0.30422
8583.7	1.1650	1165.0	0.30710
8547.0	1.1700	1170.0	0.30931
8510.6	1.1750	1175.0	0.31173
8474.6	1.1800	1180.0	0.31314
8438.8	1.1850	1185.0	0.31564
8403.4	1.1900	1190.0	0.31666
8368.2	1.1950	1195.0	0.31867
8333.3	1.2000	1200.0	0.32041
8298.8	1.2050	1205.0	0.32238
8264.5	1.2100	1210.0	0.32536
8230.5	1.2150	1215.0	0.32521
8196.7	1.2200	1220.0	0.32675
8163.3	1.2250	1225.0	0.32814
8130.1	1.2300	1230.0	0.32969
8097.2	1.2350	1235.0	0.33097
8064.5	1.2400	1240.0	0.33218
8032.1	1.2450	1245.0	0.33359
8000.0	1.2500	1250.0	0.33458
7968.1	1.2550	1255.0	0.33589
7936.5	1.2600	1260.0	0.33741
7905.1	1.2650	1265.0	0.33907
7874.0	1.2700	1270.0	0.34048
7843.1	1.2750	1275.0	0.34145
7812.5	1.2800	1280.0	0.34288
7782.1	1.2850	1285.0	0.34463
7751.9	1.2900	1290.0	0.34680
7722.0	1.2950	1295.0	0.34854
7692.3	1.3000	1300.0	0.35037
7662.8	1.3050	1305.0	0.35279
7633.6	1.3100	1310.0	0.35528
7604.6	1.3150	1315.0	0.35750
7575.8	1.3200	1320.0	0.35983
7547.2	1.3250	1325.0	0.36222
7518.8	1.3300	1330.0	0.36553
7490.6	1.3350	1335.0	0.36848
7462.7	1.3400	1340.0	0.37132
7434.9	1.3450	1345.0	0.37428
7407.4	1.3500	1350.0	0.37831
7380.1	1.3550	1355.0	0.38126
7352.9	1.3600	1360.0	0.38472
7326.0	1.3650	1365.0	0.38798
7299.3	1.3700	1370.0	0.39182
7272.7	1.3750	1375.0	0.39478
7246.4	1.3800	1380.0	0.39890
7220.2	1.3850	1385.0	0.40342
7194.2	1.3900	1390.0	0.40846
7168.5	1.3950	1395.0	0.41267
7142.9	1.4000	1400.0	0.41795
7117.4	1.4050	1405.0	0.42306
7092.2	1.4100	1410.0	0.42776
7067.1	1.4150	1415.0	0.43213
7042.3	1.4200	1420.0	0.43727
7017.5	1.4250	1425.0	0.44113
6993.0	1.4300	1430.0	0.44582
6968.6	1.4350	1435.0	0.45000
6944.4	1.4400	1440.0	0.45533
6920.4	1.4450	1445.0	0.46140
6896.6	1.4500	1450.0	0.46656
6872.9	1.4550	1455.0	0.47143
6849.3	1.4600	1460.0	0.47736
6825.9	1.4650	1465.0	0.48290
6802.7	1.4700	1470.0	0.48813
6779.7	1.4750	1475.0	0.49302
6756.8	1.4800	1480.0	0.49919
6734.0	1.4850	1485.0	0.50475
6711.4	1.4900	1490.0	0.50983
6689.0	1.4950	1495.0	0.51596
6666.7	1.5000	1500.0	0.52182
6644.5	1.5050	1505.0	0.52715
6622.5	1.5100	1510.0	0.53302
6600.7	1.5150	1515.0	0.53851
6578.9	1.5200	1520.0	0.54427
6557.4	1.5250	1525.0	0.55040
6535.9	1.5300	1530.0	0.55525
6514.7	1.5350	1535.0	0.56115
6493.5	1.5400	1540.0	0.56685
6472.5	1.5450	1545.0	0.57253
6451.6	1.5500	1550.0	0.57777
6430.9	1.5550	1555.0	0.58305
6410.3	1.5600	1560.0	0.58780
6389.8	1.5650	1565.0	0.59328
6369.4	1.5700	1570.0	0.59838
6349.2	1.5750	1575.0	0.60367
6329.1	1.5800	1580.0	0.60940
6309.1	1.5850	1585.0	0.61431
6289.3	1.5900	1590.0	0.61884
6269.6	1.5950	1595.0	0.62402
6250.0	1.6000	1600.0	0.62866
6230.5	1.6050	1605.0	0.63364
6211.2	1.6100	1610.0	0.63835
6192.0	1.6150	1615.0	0.64247
6172.8	1.6200	1620.0	0.64698
6153.8	1.6250	1625.0	0.65192
6135.0	1.6300	1630.0	0.65561
6116.2	1.6350	1635.0	0.65987
6097.6	1.6400	1640.0	0.66366
6079.0	1.6450	1645.0	0.66702
6060.6	1.6500	1650.0	0.67170
6042.3	1.6550	1655.0	0.67491
6024.1	1.6600	1660.0	0.67890
6006.0	1.6650	1665.0	0.68288
5988.0	1.6700	1670.0	0.68703
5970.1	1.6750	1675.0	0.69040
5952.4	1.6800	1680.0	0.69340
5934.7	1.6850	1685.0	0.69551
5917.2	1.6900	1690.0	0.69898
5899.7	1.6950	1695.0	0.70140
5882.4	1.7000	1700.0	0.70153
5865.1	1.7050	1705.0	0.70498
5848.0	1.7100	1710.0	0.70886
5830.9	1.7150	1715.0	0.71230
5814.0	1.7200	1720.0	0.71518
5797.1	1.7250	1725.0	0.71828
5780.3	1.7300	1730.0	0.72044
5763.7	1.7350	1735.0	0.72283
5747.1	1.7400	1740.0	0.72451
5730.7	1.7450	1745.0	0.72634
5714.3	1.7500	1750.0	0.72800
5698.0	1.7550	1755.0	0.73210
5681.8	1.7600	1760.0	0.73429
5665.7	1.7650	1765.0	0.73695
5649.7	1.7700	1770.0	0.73817
5633.8	1.7750	1775.0	0.74047
5618.0	1.7800	1780.0	0.74071
5602.2	1.7850	1785.0	0.74220
5586.6	1.7900	1790.0	0.74390
5571.0	1.7950	1795.0	0.74515
5555.6	1.8000	1800.0	0.74680
5540.2	1.8050	1805.0	0.74820
5524.9	1.8100	1810.0	0.74980
5509.6	1.8150	1815.0	0.75019
5494.5	1.8200	1820.0	0.75156
5479.5	1.8250	1825.0	0.75351
5464.5	1.8300	1830.0	0.75393
5449.6	1.8350	1835.0	0.75394
5434.8	1.8400	1840.0	0.75408
5420.1	1.8450	1845.0	0.75425
5405.4	1.8500	1850.0	0.75540
5401.9	1.8512	1851.2	0.75534
5399.9	1.8519	1851.9	0.75547
5397.8	1.8526	1852.6	0.75553
5396.1	1.8532	1853.2	0.75550
5394.0	1.8539	1853.9	0.75567
5392.3	1.8545	1854.5	0.75572
5390.3	1.8552	1855.2	0.75575
5388.2	1.8559	1855.9	0.75592
5386.5	1.8565	1856.5	0.75604
5384.4	1.8572	1857.2	0.75605
5382.4	1.8579	1857.9	0.75607
5380.7	1.8585	1858.5	0.75616
5378.7	1.8592	1859.2	0.75615
5376.6	1.8599	1859.9	0.75612
5374.9	1.8605	1860.5	0.75622
5372.9	1.8612	1861.2	0.75640
5370.9	1.8619	1861.9	0.75678
5369.1	1.8625	1862.5	0.75689
5367.1	1.8632	1863.2	0.75688
5365.1	1.8639	1863.9	0.75682
5363.4	1.8645	1864.5	0.75687
5361.4	1.8652	1865.2	0.75697
5359.3	1.8659	1865.9	0.75680
5357.3	1.8666	1866.6	0.75678
5355.6	1.8672	1867.2	0.75693
5353.6	1.8679	1867.9	0.75689
5351.6	1.8686	1868.6	0.75706
5349.6	1.8693	1869.3	0.75734
5347.9	1.8699	1869.9	0.75737
5345.9	1.8706	1870.6	0.75720
5343.9	1.8713	1871.3	0.75723
5342.2	1.8719	1871.9	0.75748
5340.2	1.8726	1872.6	0.75755
5338.2	1.8733	1873.3	0.75746
5336.2	1.8740	1874.0	0.75772
5334.2	1.8747	1874.7	0.75789
5332.5	1.8753	1875.3	0.75788
5330.5	1.8760	1876.0	0.75773
5328.5	1.8767	1876.7	0.75769
5326.5	1.8774	1877.4	0.75766
5324.5	1.8781	1878.1	0.75766
5322.8	1.8787	1878.7	0.75780
5320.8	1.8794	1879.4	0.75781
5318.9	1.8801	1880.1	0.75786
5316.9	1.8808	1880.8	0.75789
5314.9	1.8815	1881.5	0.75802
5313.2	1.8821	1882.1	0.75800
5311.2	1.8828	1882.8	0.75795
5309.3	1.8835	1883.5	0.75806
5307.3	1.8842	1884.2	0.75815
5305.3	1.8849	1884.9	0.75823
5303.4	1.8856	1885.6	0.75845
5301.4	1.8863	1886.3	0.75853
5299.7	1.8869	1886.9	0.75857
5297.7	1.8876	1887.6	0.75858
5295.8	1.8883	1888.3	0.75849
5293.8	1.8890	1889.0	0.75846
5291.8	1.8897	1889.7	0.75837
5289.9	1.8904	1890.4	0.75857
5287.9	1.8911	1891.1	0.75876
5286.0	1.8918	1891.8	0.75881
5284.3	1.8924	1892.4	0.75874
5282.3	1.8931	1893.1	0.75885
5280.4	1.8938	1893.8	0.75905
5278.4	1.8945	1894.5	0.75912
5276.5	1.8952	1895.2	0.75912
5274.5	1.8959	1895.9	0.75927
5272.6	1.8966	1896.6	0.75920
5270.6	1.8973	1897.3	0.75916
5268.7	1.8980	1898.0	0.75914
5266.8	1.8987	1898.7	0.75926
5264.8	1.8994	1899.4	0.75931
5262.9	1.9001	1900.1	0.75937
5260.9	1.9008	1900.8	0.75949
5259.0	1.9015	1901.5	0.75958
5257.1	1.9022	1902.2	0.75949
5255.1	1.9029	1902.9	0.75958
5253.2	1.9036	1903.6	0.75959
5251.3	1.9043	1904.3	0.75970
5249.3	1.9050	1905.0	0.75974
5247.4	1.9057	1905.7	0.75976
5245.5	1.9064	1906.4	0.75980
5243.6	1.9071	1907.1	0.75987
5241.6	1.9078	1907.8	0.75973
5239.7	1.9085	1908.5	0.75982
5237.8	1.9092	1909.2	0.76009
5235.9	1.9099	1909.9	0.76018
5234.0	1.9106	1910.6	0.76015
5232.0	1.9113	1911.3	0.76017
5230.1	1.9120	1912.0	0.76019
5228.2	1.9127	1912.7	0.76005
5226.3	1.9134	1913.4	0.75989
5224.4	1.9141	1914.1	0.75999
5222.5	1.9148	1914.8	0.76014
5220.6	1.9155	1915.5	0.76049
5218.7	1.9162	1916.2	0.76064
5216.8	1.9169	1916.9	0.76063
5214.9	1.9176	1917.6	0.76062
5212.9	1.9183	1918.3	0.76074
5210.8	1.9191	1919.1	0.76080
5208.9	1.9198	1919.8	0.76091
5207.0	1.9205	1920.5	0.76091
5205.1	1.9212	1921.2	0.76076
5203.2	1.9219	1921.9	0.76056
5201.3	1.9226	1922.6	0.76066
5199.4	1.9233	1923.3	0.76086
5197.2	1.9241	1924.1	0.76098
5195.3	1.9248	1924.8	0.76110
5193.5	1.9255	1925.5	0.76115
5191.6	1.9262	1926.2	0.76115
5189.7	1.9269	1926.9	0.76117
5187.8	1.9276	1927.6	0.76129
5185.9	1.9283	1928.3	0.76140
5183.8	1.9291	1929.1	0.76142
5181.9	1.9298	1929.8	0.76156
5180.0	1.9305	1930.5	0.76163
5178.1	1.9312	1931.2	0.76163
5176.3	1.9319	1931.9	0.76159
5174.1	1.9327	1932.7	0.76163
5172.2	1.9334	1933.4	0.76175
5170.4	1.9341	1934.1	0.76193
5168.5	1.9348	1934.8	0.76196
5166.6	1.9355	1935.5	0.76199
5164.5	1.9363	1936.3	0.76213
5162.6	1.9370	1937.0	0.76236
5160.8	1.9377	1937.7	0.76228
5158.9	1.9384	1938.4	0.76219
5156.8	1.9392	1939.2	0.76201
5154.9	1.9399	1939.9	0.76194
5153.0	1.9406	1940.6	0.76212
5151.2	1.9413	1941.3	0.76242
5149.1	1.9421	1942.1	0.76235
5147.2	1.9428	1942.8	0.76216
5145.4	1.9435	1943.5	0.76232
5143.2	1.9443	1944.3	0.76263
5141.4	1.9450	1945.0	0.76265
5139.5	1.9457	1945.7	0.76267
5137.7	1.9464	1946.4	0.76274
5135.6	1.9472	1947.2	0.76286
5133.7	1.9479	1947.9	0.76287
5131.9	1.9486	1948.6	0.76297
5129.8	1.9494	1949.4	0.76298
5127.9	1.9501	1950.1	0.76297
5126.1	1.9508	1950.8	0.76304
5124.0	1.9516	1951.6	0.76330
5122.2	1.9523	1952.3	0.76323
5120.3	1.9530	1953.0	0.76321
5118.2	1.9538	1953.8	0.76334
5116.4	1.9545	1954.5	0.76336
5114.3	1.9553	1955.3	0.76341
5112.5	1.9560	1956.0	0.76352
5110.6	1.9567	1956.7	0.76341
5108.6	1.9575	1957.5	0.76353
5106.7	1.9582	1958.2	0.76375
5104.9	1.9589	1958.9	0.76380
5102.8	1.9597	1959.7	0.76369
5101.0	1.9604	1960.4	0.76371
5098.9	1.9612	1961.2	0.76371
5097.1	1.9619	1961.9	0.76383
5095.0	1.9627	1962.7	0.76400
5093.2	1.9634	1963.4	0.76421
5091.4	1.9641	1964.1	0.76425
5089.3	1.9649	1964.9	0.76417
5087.5	1.9656	1965.6	0.76411
5085.4	1.9664	1966.4	0.76406
5083.6	1.9671	1967.1	0.76417
5081.6	1.9679	1967.9	0.76442
5079.8	1.9686	1968.6	0.76450
5077.7	1.9694	1969.4	0.76452
5075.9	1.9701	1970.1	0.76446
5074.1	1.9708	1970.8	0.76449
5072.0	1.9716	1971.6	0.76449
5070.2	1.9723	1972.3	0.76460
5068.2	1.9731	1973.1	0.76480
5066.4	1.9738	1973.8	0.76496
5064.3	1.9746	1974.6	0.76496
5062.3	1.9754	1975.4	0.76491
5060.5	1.9761	1976.1	0.76493
5058.4	1.9769	1976.9	0.76499
5056.6	1.9776	1977.6	0.76504
5054.6	1.9784	1978.4	0.76511
5052.8	1.9791	1979.1	0.76514
5050.8	1.9799	1979.9	0.76506
5049.0	1.9806	1980.6	0.76511
5046.9	1.9814	1981.4	0.76540
5044.9	1.9822	1982.2	0.76554
5043.1	1.9829	1982.9	0.76562
5041.1	1.9837	1983.7	0.76566
5039.3	1.9844	1984.4	0.76570
5037.3	1.9852	1985.2	0.76578
5035.5	1.9859	1985.9	0.76574
5033.5	1.9867	1986.7	0.76559
5031.4	1.9875	1987.5	0.76579
5029.7	1.9882	1988.2	0.76583
5027.7	1.9890	1989.0	0.76580
5025.6	1.9898	1989.8	0.76593
5023.9	1.9905	1990.5	0.76607
5021.8	1.9913	1991.3	0.76603
5019.8	1.9921	1992.1	0.76617
5018.1	1.9928	1992.8	0.76629
5016.1	1.9936	1993.6	0.76630
5014.3	1.9943	1994.3	0.76640
5012.3	1.9951	1995.1	0.76653
5010.3	1.9959	1995.9	0.76656
5008.3	1.9967	1996.7	0.76648
5006.5	1.9974	1997.4	0.76647
5004.5	1.9982	1998.2	0.76670
5002.5	1.9990	1999.0	0.76681
5000.7	1.9997	1999.7	0.76682
4998.8	2.0005	2000.5	0.76673
4996.8	2.0013	2001.3	0.76682
4994.8	2.0021	2002.1	0.76702
4993.0	2.0028	2002.8	0.76712
4991.0	2.0036	2003.6	0.76710
4989.0	2.0044	2004.4	0.76718
4987.0	2.0052	2005.2	0.76716
4985.3	2.0059	2005.9	0.76721
4983.3	2.0067	2006.7	0.76728
4981.3	2.0075	2007.5	0.76731
4979.3	2.0083	2008.3	0.76743
4977.6	2.0090	2009.0	0.76770
4975.6	2.0098	2009.8	0.76773
4973.6	2.0106	2010.6	0.76774
4971.7	2.0114	2011.4	0.76783
4969.7	2.0122	2012.2	0.76791
4968.0	2.0129	2012.9	0.76789
4966.0	2.0137	2013.7	0.76785
4964.0	2.0145	2014.5	0.76790
4962.0	2.0153	2015.3	0.76805
4960.1	2.0161	2016.1	0.76821
4958.3	2.0168	2016.8	0.76812
4956.4	2.0176	2017.6	0.76799
4954.4	2.0184	2018.4	0.76818
4952.5	2.0192	2019.2	0.76829
4950.5	2.0200	2020.0	0.76836
4948.5	2.0208	2020.8	0.76842
4946.6	2.0216	2021.6	0.76853
4944.6	2.0224	2022.4	0.76860
4942.7	2.0232	2023.2	0.76868
4941.0	2.0239	2023.9	0.76871
4939.0	2.0247	2024.7	0.76883
4937.1	2.0255	2025.5	0.76885
4935.1	2.0263	2026.3	0.76889
4933.2	2.0271	2027.1	0.76896
4931.2	2.0279	2027.9	0.76894
4929.3	2.0287	2028.7	0.76896
4927.3	2.0295	2029.5	0.76913
4925.4	2.0303	2030.3	0.76929
4923.4	2.0311	2031.1	0.76941
4921.5	2.0319	2031.9	0.76925
4919.6	2.0327	2032.7	0.76918
4917.6	2.0335	2033.5	0.76923
4915.7	2.0343	2034.3	0.76934
4913.8	2.0351	2035.1	0.76948
4911.8	2.0359	2035.9	0.76963
4909.9	2.0367	2036.7	0.76971
4908.0	2.0375	2037.5	0.76967
4906.0	2.0383	2038.3	0.76965
4904.1	2.0391	2039.1	0.76986
4902.2	2.0399	2039.9	0.76988
4900.3	2.0407	2040.7	0.76997
4898.4	2.0415	2041.5	0.77005
4896.4	2.0423	2042.3	0.77008
4894.5	2.0431	2043.1	0.77007
4892.6	2.0439	2043.9	0.77010
4890.7	2.0447	2044.7	0.76999
4888.8	2.0455	2045.5	0.77015
4886.9	2.0463	2046.3	0.77041
4885.0	2.0471	2047.1	0.77055
4883.1	2.0479	2047.9	0.77055
4881.1	2.0487	2048.7	0.77067
4879.2	2.0495	2049.5	0.77073
4877.1	2.0504	2050.4	0.77076
4875.2	2.0512	2051.2	0.77068
4873.3	2.0520	2052.0	0.77073
4871.4	2.0528	2052.8	0.77073
4869.5	2.0536	2053.6	0.77067
4867.6	2.0544	2054.4	0.77080
4865.7	2.0552	2055.2	0.77099
4863.8	2.0560	2056.0	0.77111
4861.7	2.0569	2056.9	0.77115
4859.8	2.0577	2057.7	0.77123
4857.9	2.0585	2058.5	0.77147
4856.0	2.0593	2059.3	0.77158
4854.1	2.0601	2060.1	0.77155
4852.2	2.0609	2060.9	0.77135
4850.1	2.0618	2061.8	0.77145
4848.2	2.0626	2062.6	0.77163
4846.4	2.0634	2063.4	0.77181
4844.5	2.0642	2064.2	0.77183
4842.4	2.0651	2065.1	0.77181
4840.5	2.0659	2065.9	0.77181
4838.6	2.0667	2066.7	0.77195
4836.8	2.0675	2067.5	0.77209
4834.9	2.0683	2068.3	0.77220
4832.8	2.0692	2069.2	0.77216
4830.9	2.0700	2070.0	0.77228
4829.1	2.0708	2070.8	0.77250
4827.2	2.0716	2071.6	0.77244
4825.1	2.0725	2072.5	0.77245
4823.2	2.0733	2073.3	0.77263
4821.4	2.0741	2074.1	0.77261
4819.3	2.0750	2075.0	0.77259
4817.4	2.0758	2075.8	0.77260
4815.6	2.0766	2076.6	0.77267
4813.5	2.0775	2077.5	0.77269
4811.6	2.0783	2078.3	0.77290
4809.8	2.0791	2079.1	0.77303
4807.7	2.0800	2080.0	0.77312
4805.8	2.0808	2080.8	0.77318
4804.0	2.0816	2081.6	0.77318
4801.9	2.0825	2082.5	0.77323
4800.1	2.0833	2083.3	0.77331
4798.2	2.0841	2084.1	0.77347
4796.2	2.0850	2085.0	0.77358
4794.3	2.0858	2085.8	0.77355
4792.3	2.0867	2086.7	0.77347
4790.4	2.0875	2087.5	0.77347
4788.6	2.0883	2088.3	0.77364
4786.5	2.0892	2089.2	0.77377
4784.7	2.0900	2090.0	0.77387
4782.6	2.0909	2090.9	0.77408
4780.8	2.0917	2091.7	0.77415
4778.7	2.0926	2092.6	0.77409
4776.9	2.0934	2093.4	0.77416
4775.1	2.0942	2094.2	0.77433
4773.0	2.0951	2095.1	0.77452
4771.2	2.0959	2095.9	0.77451
4769.2	2.0968	2096.8	0.77452
4767.4	2.0976	2097.6	0.77465
4765.3	2.0985	2098.5	0.77464
4763.5	2.0993	2099.3	0.77460
4761.5	2.1002	2100.2	0.77466
4759.6	2.1010	2101.0	0.77478
4757.6	2.1019	2101.9	0.77485
4755.8	2.1027	2102.7	0.77490
4753.8	2.1036	2103.6	0.77516
4751.9	2.1044	2104.4	0.77532
4749.9	2.1053	2105.3	0.77536
4748.1	2.1061	2106.1	0.77543
4746.1	2.1070	2107.0	0.77551
4744.1	2.1079	2107.9	0.77543
4742.3	2.1087	2108.7	0.77552
4740.2	2.1096	2109.6	0.77563
4738.4	2.1104	2110.4	0.77581
4736.4	2.1113	2111.3	0.77585
4734.4	2.1122	2112.2	0.77588
4732.6	2.1130	2113.0	0.77594
4730.6	2.1139	2113.9	0.77603
4728.8	2.1147	2114.7	0.77612
4726.8	2.1156	2115.6	0.77633
4724.8	2.1165	2116.5	0.77638
4723.0	2.1173	2117.3	0.77638
4721.0	2.1182	2118.2	0.77638
4719.0	2.1191	2119.1	0.77649
4717.2	2.1199	2119.9	0.77658
4715.2	2.1208	2120.8	0.77669
4713.2	2.1217	2121.7	0.77679
4711.4	2.1225	2122.5	0.77688
4709.4	2.1234	2123.4	0.77685
4707.4	2.1243	2124.3	0.77692
4705.7	2.1251	2125.1	0.77702
4703.7	2.1260	2126.0	0.77705
4701.7	2.1269	2126.9	0.77690
4699.7	2.1278	2127.8	0.77686
4697.9	2.1286	2128.6	0.77697
4695.9	2.1295	2129.5	0.77716
4694.0	2.1304	2130.4	0.77724
4692.0	2.1313	2131.3	0.77729
4690.2	2.1321	2132.1	0.77732
4688.2	2.1330	2133.0	0.77744
4686.3	2.1339	2133.9	0.77762
4684.3	2.1348	2134.8	0.77776
4682.5	2.1356	2135.6	0.77783
4680.6	2.1365	2136.5	0.77788
4678.6	2.1374	2137.4	0.77783
4676.6	2.1383	2138.3	0.77790
4674.6	2.1392	2139.2	0.77801
4672.7	2.1401	2140.1	0.77807
4670.9	2.1409	2140.9	0.77820
4669.0	2.1418	2141.8	0.77834
4667.0	2.1427	2142.7	0.77835
4665.0	2.1436	2143.6	0.77843
4663.1	2.1445	2144.5	0.77844
4661.1	2.1454	2145.4	0.77850
4659.2	2.1463	2146.3	0.77859
4657.4	2.1471	2147.1	0.77870
4655.5	2.1480	2148.0	0.77873
4653.5	2.1489	2148.9	0.77877
4651.6	2.1498	2149.8	0.77874
4649.6	2.1507	2150.7	0.77879
4647.7	2.1516	2151.6	0.77890
4645.8	2.1525	2152.5	0.77902
4643.8	2.1534	2153.4	0.77902
4641.9	2.1543	2154.3	0.77905
4639.9	2.1552	2155.2	0.77902
4638.0	2.1561	2156.1	0.77922
4636.1	2.1570	2157.0	0.77924
4634.1	2.1579	2157.9	0.77918
4632.2	2.1588	2158.8	0.77904
4630.3	2.1597	2159.7	0.77919
4628.3	2.1606	2160.6	0.77929
4626.4	2.1615	2161.5	0.77932
4624.5	2.1624	2162.4	0.77937
4622.6	2.1633	2163.3	0.77957
4620.6	2.1642	2164.2	0.77962
4618.7	2.1651	2165.1	0.77960
4616.8	2.1660	2166.0	0.77961
4614.9	2.1669	2166.9	0.77962
4613.0	2.1678	2167.8	0.77977
4611.1	2.1687	2168.7	0.77987
4609.1	2.1696	2169.6	0.77989
4607.2	2.1705	2170.5	0.77990
4605.3	2.1714	2171.4	0.77998
4603.4	2.1723	2172.3	0.78005
4601.3	2.1733	2173.3	0.78002
4599.4	2.1742	2174.2	0.78025
4597.5	2.1751	2175.1	0.78037
4595.6	2.1760	2176.0	0.78035
4593.7	2.1769	2176.9	0.78038
4591.8	2.1778	2177.8	0.78061
4589.9	2.1787	2178.7	0.78060
4588.0	2.1796	2179.6	0.78052
4585.9	2.1806	2180.6	0.78041
4584.0	2.1815	2181.5	0.78049
4582.1	2.1824	2182.4	0.78061
4580.2	2.1833	2183.3	0.78063
4578.3	2.1842	2184.2	0.78069
4576.4	2.1851	2185.1	0.78082
4574.4	2.1861	2186.1	0.78081
4572.5	2.1870	2187.0	0.78089
4570.6	2.1879	2187.9	0.78106
4568.7	2.1888	2188.8	0.78107
4566.6	2.1898	2189.8	0.78108
4564.8	2.1907	2190.7	0.78121
4562.9	2.1916	2191.6	0.78119
4560.8	2.1926	2192.6	0.78130
4558.9	2.1935	2193.5	0.78144
4557.1	2.1944	2194.4	0.78150
4555.2	2.1953	2195.3	0.78144
4553.1	2.1963	2196.3	0.78136
4551.2	2.1972	2197.2	0.78145
4549.4	2.1981	2198.1	0.78177
4547.3	2.1991	2199.1	0.78189
4545.5	2.2000	2200.0	0.78188
4543.6	2.2009	2200.9	0.78193
4541.5	2.2019	2201.9	0.78197
4539.7	2.2028	2202.8	0.78197
4537.8	2.2037	2203.7	0.78204
4535.8	2.2047	2204.7	0.78208
4533.9	2.2056	2205.6	0.78219
4532.1	2.2065	2206.5	0.78221
4530.0	2.2075	2207.5	0.78210
4528.2	2.2084	2208.4	0.78207
4526.1	2.2094	2209.4	0.78231
4524.3	2.2103	2210.3	0.78239
4522.2	2.2113	2211.3	0.78234
4520.4	2.2122	2212.2	0.78243
4518.5	2.2131	2213.1	0.78259
4516.5	2.2141	2214.1	0.78267
4514.7	2.2150	2215.0	0.78283
4512.6	2.2160	2216.0	0.78274
4510.8	2.2169	2216.9	0.78270
4508.8	2.2179	2217.9	0.78272
4506.9	2.2188	2218.8	0.78274
4504.9	2.2198	2219.8	0.78279
4503.1	2.2207	2220.7	0.78293
4501.1	2.2217	2221.7	0.78298
4499.2	2.2226	2222.6	0.78297
4497.2	2.2236	2223.6	0.78304
4495.4	2.2245	2224.5	0.78310
4493.4	2.2255	2225.5	0.78307
4491.6	2.2264	2226.4	0.78312
4489.5	2.2274	2227.4	0.78310
4487.5	2.2284	2228.4	0.78313
4485.7	2.2293	2229.3	0.78326
4483.7	2.2303	2230.3	0.78336
4481.9	2.2312	2231.2	0.78335
4479.9	2.2322	2232.2	0.78339
4478.1	2.2331	2233.1	0.78343
4476.1	2.2341	2234.1	0.78351
4474.1	2.2351	2235.1	0.78365
4472.3	2.2360	2236.0	0.78373
4470.3	2.2370	2237.0	0.78372
4468.3	2.2380	2238.0	0.78375
4466.5	2.2389	2238.9	0.78368
4464.5	2.2399	2239.9	0.78377
4462.5	2.2409	2240.9	0.78385
4460.7	2.2418	2241.8	0.78394
4458.7	2.2428	2242.8	0.78398
4456.7	2.2438	2243.8	0.78396
4454.7	2.2448	2244.8	0.78391
4453.0	2.2457	2245.7	0.78407
4451.0	2.2467	2246.7	0.78412
4449.0	2.2477	2247.7	0.78419
4447.2	2.2486	2248.6	0.78418
4445.2	2.2496	2249.6	0.78417
4443.3	2.2506	2250.6	0.78419
4441.3	2.2516	2251.6	0.78420
4439.3	2.2526	2252.6	0.78424
4437.5	2.2535	2253.5	0.78442
4435.6	2.2545	2254.5	0.78442
4433.6	2.2555	2255.5	0.78442
4431.6	2.2565	2256.5	0.78439
4429.7	2.2575	2257.5	0.78444
4427.9	2.2584	2258.4	0.78453
4426.0	2.2594	2259.4	0.78457
4424.0	2.2604	2260.4	0.78453
4422.0	2.2614	2261.4	0.78447
4420.1	2.2624	2262.4	0.78448
4418.1	2.2634	2263.4	0.78464
4416.2	2.2644	2264.4	0.78472
4414.2	2.2654	2265.4	0.78475
4412.5	2.2663	2266.3	0.78474
4410.5	2.2673	2267.3	0.78492
4408.6	2.2683	2268.3	0.78490
4406.6	2.2693	2269.3	0.78483
4404.7	2.2703	2270.3	0.78484
4402.8	2.2713	2271.3	0.78489
4400.8	2.2723	2272.3	0.78492
4398.9	2.2733	2273.3	0.78494
4397.0	2.2743	2274.3	0.78498
4395.0	2.2753	2275.3	0.78501
4393.1	2.2763	2276.3	0.78508
4391.2	2.2773	2277.3	0.78511
4389.2	2.2783	2278.3	0.78507
4387.3	2.2793	2279.3	0.78524
4385.4	2.2803	2280.3	0.78534
4383.5	2.2813	2281.3	0.78541
4381.5	2.2823	2282.3	0.78539
4379.6	2.2833	2283.3	0.78538
4377.7	2.2843	2284.3	0.78532
4375.8	2.2853	2285.3	0.78539
4373.9	2.2863	2286.3	0.78541
4372.0	2.2873	2287.3	0.78560
4369.9	2.2884	2288.4	0.78558
4368.0	2.2894	2289.4	0.78552
4366.0	2.2904	2290.4	0.78551
4364.1	2.2914	2291.4	0.78559
4362.2	2.2924	2292.4	0.78558
4360.3	2.2934	2293.4	0.78555
4358.4	2.2944	2294.4	0.78562
4356.5	2.2954	2295.4	0.78578
4354.5	2.2965	2296.5	0.78573
4352.6	2.2975	2297.5	0.78570
4350.7	2.2985	2298.5	0.78572
4348.8	2.2995	2299.5	0.78573
4346.9	2.3005	2300.5	0.78566
4344.8	2.3016	2301.6	0.78572
4342.9	2.3026	2302.6	0.78576
4341.0	2.3036	2303.6	0.78585
4339.1	2.3046	2304.6	0.78577
4337.3	2.3056	2305.6	0.78581
4335.2	2.3067	2306.7	0.78594
4333.3	2.3077	2307.7	0.78595
4331.4	2.3087	2308.7	0.78594
4329.4	2.3098	2309.8	0.78604
4327.5	2.3108	2310.8	0.78605
4325.6	2.3118	2311.8	0.78601
4323.6	2.3129	2312.9	0.78608
4321.7	2.3139	2313.9	0.78626
4319.8	2.3149	2314.9	0.78634
4318.0	2.3159	2315.9	0.78639
4315.9	2.3170	2317.0	0.78650
4314.1	2.3180	2318.0	0.78666
4312.0	2.3191	2319.1	0.78665
4310.2	2.3201	2320.1	0.78671
4308.3	2.3211	2321.1	0.78678
4306.3	2.3222	2322.2	0.78680
4304.4	2.3232	2323.2	0.78676
4302.4	2.3243	2324.3	0.78679
4300.5	2.3253	2325.3	0.78681
4298.7	2.3263	2326.3	0.78685
4296.6	2.3274	2327.4	0.78682
4294.8	2.3284	2328.4	0.78685
4292.8	2.3295	2329.5	0.78686
4290.9	2.3305	2330.5	0.78689
4288.9	2.3316	2331.6	0.78690
4287.1	2.3326	2332.6	0.78703
4285.0	2.3337	2333.7	0.78713
4283.2	2.3347	2334.7	0.78717
4281.2	2.3358	2335.8	0.78711
4279.4	2.3368	2336.8	0.78708
4277.3	2.3379	2337.9	0.78700
4275.5	2.3389	2338.9	0.78701
4273.5	2.3400	2340.0	0.78702
4271.7	2.3410	2341.0	0.78714
4269.7	2.3421	2342.1	0.78717
4267.7	2.3432	2343.2	0.78722
4265.8	2.3442	2344.2	0.78727
4263.8	2.3453	2345.3	0.78724
4262.0	2.3463	2346.3	0.78708
4260.0	2.3474	2347.4	0.78710
4258.0	2.3485	2348.5	0.78713
4256.2	2.3495	2349.5	0.78723
4254.2	2.3506	2350.6	0.78722
4252.2	2.3517	2351.7	0.78731
4250.4	2.3527	2352.7	0.78742
4248.4	2.3538	2353.8	0.78745
4246.5	2.3549	2354.9	0.78744
4244.7	2.3559	2355.9	0.78745
4242.7	2.3570	2357.0	0.78747
4240.7	2.3581	2358.1	0.78759
4238.9	2.3591	2359.1	0.78772
4236.9	2.3602	2360.2	0.78772
4235.0	2.3613	2361.3	0.78759
4233.0	2.3624	2362.4	0.78769
4231.2	2.3634	2363.4	0.78773
4229.2	2.3645	2364.5	0.78777
4227.3	2.3656	2365.6	0.78783
4225.3	2.3667	2366.7	0.78790
4223.3	2.3678	2367.8	0.78781
4221.4	2.3689	2368.9	0.78776
4219.6	2.3699	2369.9	0.78777
4217.6	2.3710	2371.0	0.78789
4215.7	2.3721	2372.1	0.78803
4213.7	2.3732	2373.2	0.78813
4211.8	2.3743	2374.3	0.78803
4209.8	2.3754	2375.4	0.78801
4208.0	2.3764	2376.4	0.78802
4206.1	2.3775	2377.5	0.78802
4204.2	2.3786	2378.6	0.78810
4202.2	2.3797	2379.7	0.78819
4200.3	2.3808	2380.8	0.78813
4198.3	2.3819	2381.9	0.78812
4196.4	2.3830	2383.0	0.78815
4194.5	2.3841	2384.1	0.78824
4192.5	2.3852	2385.2	0.78821
4190.6	2.3863	2386.3	0.78820
4188.7	2.3874	2387.4	0.78823
4186.7	2.3885	2388.5	0.78829
4184.8	2.3896	2389.6	0.78836
4182.9	2.3907	2390.7	0.78847
4181.0	2.3918	2391.8	0.78848
4179.0	2.3929	2392.9	0.78847
4177.1	2.3940	2394.0	0.78845
4175.2	2.3951	2395.1	0.78843
4173.3	2.3962	2396.2	0.78838
4171.4	2.3973	2397.3	0.78847
4169.4	2.3984	2398.4	0.78849
4167.4	2.3996	2399.6	0.78845
4165.5	2.4007	2400.7	0.78838
4163.5	2.4018	2401.8	0.78843
4161.6	2.4029	2402.9	0.78851
4159.7	2.4040	2404.0	0.78870
4157.8	2.4051	2405.1	0.78876
4155.9	2.4062	2406.2	0.78869
4153.9	2.4074	2407.4	0.78854
4152.0	2.4085	2408.5	0.78854
4150.1	2.4096	2409.6	0.78853
4148.2	2.4107	2410.7	0.78858
4146.3	2.4118	2411.8	0.78868
4144.4	2.4129	2412.9	0.78873
4142.3	2.4141	2414.1	0.78874
4140.4	2.4152	2415.2	0.78886
4138.6	2.4163	2416.3	0.78885
4136.7	2.4174	2417.4	0.78881
4134.6	2.4186	2418.6	0.78870
4132.7	2.4197	2419.7	0.78872
4130.9	2.4208	2420.8	0.78873
4128.8	2.4220	2422.0	0.78871
4126.9	2.4231	2423.1	0.78870
4125.1	2.4242	2424.2	0.78875
4123.0	2.4254	2425.4	0.78875
4121.2	2.4265	2426.5	0.78881
4119.3	2.4276	2427.6	0.78876
4117.3	2.4288	2428.8	0.78887
4115.4	2.4299	2429.9	0.78895
4113.4	2.4311	2431.1	0.78885
4111.5	2.4322	2432.2	0.78875
4109.6	2.4333	2433.3	0.78875
4107.6	2.4345	2434.5	0.78879
4105.8	2.4356	2435.6	0.78889
4103.7	2.4368	2436.8	0.78889
4101.9	2.4379	2437.9	0.78895
4099.9	2.4391	2439.1	0.78904
4098.0	2.4402	2440.2	0.78901
4096.0	2.4414	2441.4	0.78892
4094.2	2.4425	2442.5	0.78895
4092.3	2.4436	2443.6	0.78897
4090.3	2.4448	2444.8	0.78897
4088.3	2.4460	2446.0	0.78888
4086.5	2.4471	2447.1	0.78893
4084.5	2.4483	2448.3	0.78896
4082.6	2.4494	2449.4	0.78893
4080.6	2.4506	2450.6	0.78883
4078.8	2.4517	2451.7	0.78882
4076.8	2.4529	2452.9	0.78881
4074.8	2.4541	2454.1	0.78877
4073.0	2.4552	2455.2	0.78862
4071.0	2.4564	2456.4	0.78869
4069.0	2.4576	2457.6	0.78875
4067.2	2.4587	2458.7	0.78870
4065.2	2.4599	2459.9	0.78866
4063.2	2.4611	2461.1	0.78871
4061.4	2.4622	2462.2	0.78869
4059.4	2.4634	2463.4	0.78864
4057.5	2.4646	2464.6	0.78858
4055.6	2.4657	2465.7	0.78853
4053.7	2.4669	2466.9	0.78862
4051.7	2.4681	2468.1	0.78876
4049.7	2.4693	2469.3	0.78875
4047.9	2.4704	2470.4	0.78872
4046.0	2.4716	2471.6	0.78864
4044.0	2.4728	2472.8	0.78864
4042.0	2.4740	2474.0	0.78867
4040.2	2.4751	2475.1	0.78866
4038.3	2.4763	2476.3	0.78863
4036.3	2.4775	2477.5	0.78870
4034.4	2.4787	2478.7	0.78869
4032.4	2.4799	2479.9	0.78875
4030.5	2.4811	2481.1	0.78876
4028.5	2.4823	2482.3	0.78876
4026.7	2.4834	2483.4	0.78868
4024.8	2.4846	2484.6	0.78869
4022.8	2.4858	2485.8	0.78863
4020.9	2.4870	2487.0	0.78862
4019.0	2.4882	2488.2	0.78859
4017.0	2.4894	2489.4	0.78861
4015.1	2.4906	2490.6	0.78862
4013.2	2.4918	2491.8	0.78863
4011.2	2.4930	2493.0	0.78865
4009.3	2.4942	2494.2	0.78868
4007.4	2.4954	2495.4	0.78872
4005.4	2.4966	2496.6	0.78874
4003.5	2.4978	2497.8	0.78869
4001.6	2.4990	2499.0	0.78872
3999.7	2.5002	2500.2	0.78871
3997.8	2.5014	2501.4	0.78868
3995.8	2.5026	2502.6	0.78864
3993.9	2.5038	2503.8	0.78867
3992.0	2.5050	2505.0	0.78865
3989.9	2.5063	2506.3	0.78865
3988.0	2.5075	2507.5	0.78862
3986.1	2.5087	2508.7	0.78856
3984.2	2.5099	2509.9	0.78847
3982.3	2.5111	2511.1	0.78850
3980.4	2.5123	2512.3	0.78847
3978.5	2.5135	2513.5	0.78838
3976.5	2.5148	2514.8	0.78835
3974.6	2.5160	2516.0	0.78847
3972.7	2.5172	2517.2	0.78850
3970.8	2.5184	2518.4	0.78852
3968.9	2.5196	2519.6	0.78845
3966.8	2.5209	2520.9	0.78838
3964.9	2.5221	2522.1	0.78838
3963.1	2.5233	2523.3	0.78838
3961.0	2.5246	2524.6	0.78832
3959.1	2.5258	2525.8	0.78836
3957.3	2.5270	2527.0	0.78840
3955.2	2.5283	2528.3	0.78843
3953.4	2.5295	2529.5	0.78836
3951.5	2.5307	2530.7	0.78826
3949.6	2.5319	2531.9	0.78818
3947.6	2.5332	2533.2	0.78825
3945.7	2.5344	2534.4	0.78825
3943.7	2.5357	2535.7	0.78823
3941.8	2.5369	2536.9	0.78826
3940.0	2.5381	2538.1	0.78833
3937.9	2.5394	2539.4	0.78819
3936.1	2.5406	2540.6	0.78813
3934.1	2.5419	2541.9	0.78808
3932.2	2.5431	2543.1	0.78809
3930.2	2.5444	2544.4	0.78809
3928.3	2.5456	2545.6	0.78809
3926.3	2.5469	2546.9	0.78793
3924.5	2.5481	2548.1	0.78790
3922.5	2.5494	2549.4	0.78793
3920.6	2.5506	2550.6	0.78792
3918.6	2.5519	2551.9	0.78790
3916.8	2.5531	2553.1	0.78794
3914.8	2.5544	2554.4	0.78788
3912.8	2.5557	2555.7	0.78781
3911.0	2.5569	2556.9	0.78781
3909.0	2.5582	2558.2	0.78789
3907.2	2.5594	2559.4	0.78783
3905.2	2.5607	2560.7	0.78779
3903.2	2.5620	2562.0	0.78779
3901.4	2.5632	2563.2	0.78789
3899.4	2.5645	2564.5	0.78789
3897.4	2.5658	2565.8	0.78790
3895.4	2.5671	2567.1	0.78784
3893.6	2.5683	2568.3	0.78772
3891.7	2.5696	2569.6	0.78763
3889.7	2.5709	2570.9	0.78766
3887.9	2.5721	2572.1	0.78759
3885.9	2.5734	2573.4	0.78756
3883.9	2.5747	2574.7	0.78763
3882.0	2.5760	2576.0	0.78760
3880.0	2.5773	2577.3	0.78753
3878.2	2.5785	2578.5	0.78759
3876.3	2.5798	2579.8	0.78757
3874.3	2.5811	2581.1	0.78755
3872.4	2.5824	2582.4	0.78753
3870.4	2.5837	2583.7	0.78745
3868.5	2.5850	2585.0	0.78743
3866.5	2.5863	2586.3	0.78734
3864.7	2.5875	2587.5	0.78728
3862.8	2.5888	2588.8	0.78727
3860.9	2.5901	2590.1	0.78727
3858.9	2.5914	2591.4	0.78726
3857.0	2.5927	2592.7	0.78719
3855.1	2.5940	2594.0	0.78726
3853.1	2.5953	2595.3	0.78717
3851.2	2.5966	2596.6	0.78707
3849.3	2.5979	2597.9	0.78699
3847.3	2.5992	2599.2	0.78702
3845.4	2.6005	2600.5	0.78697
3843.5	2.6018	2601.8	0.78698
3841.6	2.6031	2603.1	0.78695
3839.7	2.6044	2604.4	0.78691
3837.7	2.6057	2605.7	0.78682
3835.7	2.6071	2607.1	0.78665
3833.8	2.6084	2608.4	0.78657
3831.9	2.6097	2609.7	0.78655
3830.0	2.6110	2611.0	0.78653
3828.0	2.6123	2612.3	0.78656
3826.1	2.6136	2613.6	0.78651
3824.2	2.6149	2614.9	0.78651
3822.2	2.6163	2616.3	0.78652
3820.3	2.6176	2617.6	0.78648
3818.4	2.6189	2618.9	0.78634
3816.5	2.6202	2620.2	0.78628
3814.5	2.6216	2621.6	0.78623
3812.6	2.6229	2622.9	0.78618
3810.7	2.6242	2624.2	0.78614
3808.8	2.6255	2625.5	0.78608
3806.8	2.6269	2626.9	0.78604
3804.9	2.6282	2628.2	0.78605
3803.0	2.6295	2629.5	0.78591
3801.0	2.6309	2630.9	0.78593
3799.1	2.6322	2632.2	0.78581
3797.2	2.6335	2633.5	0.78565
3795.2	2.6349	2634.9	0.78560
3793.3	2.6362	2636.2	0.78559
3791.3	2.6376	2637.6	0.78550
3789.5	2.6389	2638.9	0.78542
3787.6	2.6402	2640.2	0.78540
3785.6	2.6416	2641.6	0.78541
3783.7	2.6429	2642.9	0.78534
3781.7	2.6443	2644.3	0.78524
3779.9	2.6456	2645.6	0.78500
3777.9	2.6470	2647.0	0.78493
3776.0	2.6483	2648.3	0.78489
3774.0	2.6497	2649.7	0.78485
3772.2	2.6510	2651.0	0.78476
3770.2	2.6524	2652.4	0.78460
3768.2	2.6538	2653.8	0.78442
3766.3	2.6551	2655.1	0.78439
3764.4	2.6565	2656.5	0.78440
3762.5	2.6578	2657.8	0.78424
3760.5	2.6592	2659.2	0.78411
3758.6	2.6606	2660.6	0.78405
3756.7	2.6619	2661.9	0.78394
3754.7	2.6633	2663.3	0.78386
3752.8	2.6647	2664.7	0.78376
3750.9	2.6660	2666.0	0.78369
3749.0	2.6674	2667.4	0.78351
3747.0	2.6688	2668.8	0.78323
3745.2	2.6701	2670.1	0.78306
3743.2	2.6715	2671.5	0.78290
3741.3	2.6729	2672.9	0.78250
3739.3	2.6743	2674.3	0.78216
3737.3	2.6757	2675.7	0.78175
3735.5	2.6770	2677.0	0.78146
3733.6	2.6784	2678.4	0.78110
3731.6	2.6798	2679.8	0.78089
3729.7	2.6812	2681.2	0.78071
3727.7	2.6826	2682.6	0.78043
3725.8	2.6840	2684.0	0.78019
3723.8	2.6854	2685.4	0.77997
3721.9	2.6868	2686.8	0.77965
3720.1	2.6881	2688.1	0.77937
3718.2	2.6895	2689.5	0.77904
3716.2	2.6909	2690.9	0.77880
3714.3	2.6923	2692.3	0.77855
3712.4	2.6937	2693.7	0.77811
3710.4	2.6951	2695.1	0.77755
3708.5	2.6965	2696.5	0.77702
3706.6	2.6979	2697.9	0.77645
3704.7	2.6993	2699.3	0.77592
3702.6	2.7008	2700.8	0.77547
3700.8	2.7021	2702.1	0.77490
3698.8	2.7036	2703.6	0.77428
3696.9	2.7050	2705.0	0.77372
3694.9	2.7064	2706.4	0.77313
3693.0	2.7078	2707.8	0.77246
3691.1	2.7092	2709.2	0.77174
3689.2	2.7106	2710.6	0.77082
3687.2	2.7121	2712.1	0.77006
3685.3	2.7135	2713.5	0.76947
3683.4	2.7149	2714.9	0.76865
3681.5	2.7163	2716.3	0.76776
3679.6	2.7177	2717.7	0.76699
3677.6	2.7192	2719.2	0.76656
3675.7	2.7206	2720.6	0.76567
3673.8	2.7220	2722.0	0.76432
3671.9	2.7234	2723.4	0.76329
3669.9	2.7249	2724.9	0.76230
3668.0	2.7263	2726.3	0.76130
3666.1	2.7277	2727.7	0.76037
3664.1	2.7292	2729.2	0.75943
3662.2	2.7306	2730.6	0.75845
3660.2	2.7321	2732.1	0.75744
3658.3	2.7335	2733.5	0.75653
3656.4	2.7349	2734.9	0.75563
3654.4	2.7364	2736.4	0.75462
3652.6	2.7378	2737.8	0.75357
3650.6	2.7393	2739.3	0.75258
3648.7	2.7407	2740.7	0.75154
3646.7	2.7422	2742.2	0.75036
3644.8	2.7436	2743.6	0.74922
3642.9	2.7451	2745.1	0.74817
3641.0	2.7465	2746.5	0.74705
3639.0	2.7480	2748.0	0.74582
3637.2	2.7494	2749.4	0.74457
3635.2	2.7509	2750.9	0.74336
3633.2	2.7524	2752.4	0.74222
3631.3	2.7538	2753.8	0.74109
3629.4	2.7553	2755.3	0.73986
3627.5	2.7567	2756.7	0.73840
3625.6	2.7582	2758.2	0.73697
3623.6	2.7597	2759.7	0.73572
3621.7	2.7611	2761.1	0.73451
3619.8	2.7626	2762.6	0.73328
3617.8	2.7641	2764.1	0.73197
3615.9	2.7656	2765.6	0.73070
3614.0	2.7670	2767.0	0.72929
3612.1	2.7685	2768.5	0.72796
3610.1	2.7700	2770.0	0.72670
3608.2	2.7715	2771.5	0.72537
3606.2	2.7730	2773.0	0.72392
3604.4	2.7744	2774.4	0.72250
3602.4	2.7759	2775.9	0.72117
3600.5	2.7774	2777.4	0.71981
3598.5	2.7789	2778.9	0.71848
3596.6	2.7804	2780.4	0.71726
3594.7	2.7819	2781.9	0.71601
3592.7	2.7834	2783.4	0.71477
3590.8	2.7849	2784.9	0.71356
3588.9	2.7864	2786.4	0.71241
3586.9	2.7879	2787.9	0.71105
3585.0	2.7894	2789.4	0.70968
3583.1	2.7909	2790.9	0.70858
3581.1	2.7924	2792.4	0.70752
3579.2	2.7939	2793.9	0.70653
3577.3	2.7954	2795.4	0.70547
3575.4	2.7969	2796.9	0.70435
3573.5	2.7984	2798.4	0.70327
3571.6	2.7999	2799.9	0.70217
3569.6	2.8014	2801.4	0.70113
3567.7	2.8029	2802.9	0.70017
3565.8	2.8044	2804.4	0.69916
3563.8	2.8060	2806.0	0.69811
3561.9	2.8075	2807.5	0.69703
3560.0	2.8090	2809.0	0.69606
3558.1	2.8105	2810.5	0.69525
3556.1	2.8121	2812.1	0.69442
3554.2	2.8136	2813.6	0.69353
3552.3	2.8151	2815.1	0.69265
3550.4	2.8166	2816.6	0.69183
3548.4	2.8182	2818.2	0.69098
3546.5	2.8197	2819.7	0.68995
3544.6	2.8212	2821.2	0.68899
3542.6	2.8228	2822.8	0.68833
3540.7	2.8243	2824.3	0.68774
3538.7	2.8259	2825.9	0.68714
3536.8	2.8274	2827.4	0.68632
3534.9	2.8289	2828.9	0.68562
3532.9	2.8305	2830.5	0.68507
3531.1	2.8320	2832.0	0.68447
3529.1	2.8336	2833.6	0.68383
3527.2	2.8351	2835.1	0.68317
3525.2	2.8367	2836.7	0.68246
3523.4	2.8382	2838.2	0.68175
3521.4	2.8398	2839.8	0.68125
3519.5	2.8413	2841.3	0.68075
3517.5	2.8429	2842.9	0.68021
3515.7	2.8444	2844.4	0.67958
3513.7	2.8460	2846.0	0.67892
3511.7	2.8476	2847.6	0.67837
3509.9	2.8491	2849.1	0.67793
3507.9	2.8507	2850.7	0.67750
3505.9	2.8523	2852.3	0.67693
3504.1	2.8538	2853.8	0.67626
3502.1	2.8554	2855.4	0.67564
3500.2	2.8570	2857.0	0.67533
3498.2	2.8586	2858.6	0.67491
3496.4	2.8601	2860.1	0.67443
3494.4	2.8617	2861.7	0.67401
3492.5	2.8633	2863.3	0.67359
3490.5	2.8649	2864.9	0.67314
3488.6	2.8665	2866.5	0.67274
3486.6	2.8681	2868.1	0.67235
3484.8	2.8696	2869.6	0.67199
3482.9	2.8712	2871.2	0.67167
3480.9	2.8728	2872.8	0.67126
3479.0	2.8744	2874.4	0.67082
3477.1	2.8760	2876.0	0.67062
3475.1	2.8776	2877.6	0.67035
3473.2	2.8792	2879.2	0.67008
3471.3	2.8808	2880.8	0.66970
3469.3	2.8824	2882.4	0.66917
3467.4	2.8840	2884.0	0.66877
3465.5	2.8856	2885.6	0.66862
3463.6	2.8872	2887.2	0.66853
3461.6	2.8888	2888.8	0.66830
3459.7	2.8904	2890.4	0.66805
3457.8	2.8920	2892.0	0.66786
3455.8	2.8937	2893.7	0.66762
3453.9	2.8953	2895.3	0.66743
3452.0	2.8969	2896.9	0.66712
3450.1	2.8985	2898.5	0.66684
3448.2	2.9001	2900.1	0.66665
3446.1	2.9018	2901.8	0.66653
3444.2	2.9034	2903.4	0.66634
3442.3	2.9050	2905.0	0.66611
3440.4	2.9066	2906.6	0.66586
3438.4	2.9083	2908.3	0.66550
3436.5	2.9099	2909.9	0.66505
3434.7	2.9115	2911.5	0.66479
3432.7	2.9132	2913.2	0.66479
3430.8	2.9148	2914.8	0.66465
3428.9	2.9164	2916.4	0.66447
3426.9	2.9181	2918.1	0.66448
3425.0	2.9197	2919.7	0.66436
3423.0	2.9214	2921.4	0.66412
3421.1	2.9230	2923.0	0.66391
3419.2	2.9247	2924.7	0.66378
3417.3	2.9263	2926.3	0.66368
3415.3	2.9280	2928.0	0.66349
3413.4	2.9296	2929.6	0.66322
3411.5	2.9313	2931.3	0.66305
3409.6	2.9329	2932.9	0.66287
3407.6	2.9346	2934.6	0.66279
3405.6	2.9363	2936.3	0.66279
3403.8	2.9379	2937.9	0.66260
3401.8	2.9396	2939.6	0.66211
3399.9	2.9413	2941.3	0.66182
3398.0	2.9429	2942.9	0.66199
3396.0	2.9446	2944.6	0.66208
3394.1	2.9463	2946.3	0.66191
3392.2	2.9479	2947.9	0.66153
3390.3	2.9496	2949.6	0.66144
3388.3	2.9513	2951.3	0.66168
3386.4	2.9530	2953.0	0.66169
3384.4	2.9547	2954.7	0.66154
3382.6	2.9563	2956.3	0.66143
3380.7	2.9580	2958.0	0.66138
3378.7	2.9597	2959.7	0.66131
3376.8	2.9614	2961.4	0.66121
3374.8	2.9631	2963.1	0.66114
3372.9	2.9648	2964.8	0.66110
3371.0	2.9665	2966.5	0.66085
3369.0	2.9682	2968.2	0.66058
3367.1	2.9699	2969.9	0.66060
3365.2	2.9716	2971.6	0.66077
3363.3	2.9733	2973.3	0.66093
3361.3	2.9750	2975.0	0.66089
3359.4	2.9767	2976.7	0.66084
3357.5	2.9784	2978.4	0.66087
3355.6	2.9801	2980.1	0.66093
3353.7	2.9818	2981.8	0.66098
3351.7	2.9836	2983.6	0.66081
3349.7	2.9853	2985.3	0.66068
3347.8	2.9870	2987.0	0.66083
3345.9	2.9887	2988.7	0.66095
3344.0	2.9904	2990.4	0.66093
3342.0	2.9922	2992.2	0.66089
3340.1	2.9939	2993.9	0.66091
3338.2	2.9956	2995.6	0.66088
3336.2	2.9974	2997.4	0.66104
3334.3	2.9991	2999.1	0.66120
3332.4	3.0008	3000.8	0.66121
3330.4	3.0026	3002.6	0.66123
3328.6	3.0043	3004.3	0.66123
3326.7	3.0060	3006.0	0.66120
3324.7	3.0078	3007.8	0.66122
3322.8	3.0095	3009.5	0.66137
3320.8	3.0113	3011.3	0.66139
3319.0	3.0130	3013.0	0.66144
3317.0	3.0148	3014.8	0.66150
3315.1	3.0165	3016.5	0.66153
3313.1	3.0183	3018.3	0.66153
3311.1	3.0201	3020.1	0.66151
3309.3	3.0218	3021.8	0.66134
3307.3	3.0236	3023.6	0.66107
3305.5	3.0253	3025.3	0.66096
3303.5	3.0271	3027.1	0.66123
3301.5	3.0289	3028.9	0.66159
3299.7	3.0306	3030.6	0.66173
3297.7	3.0324	3032.4	0.66174
3295.8	3.0342	3034.2	0.66168
3293.8	3.0360	3036.0	0.66159
3292.0	3.0377	3037.7	0.66150
3290.0	3.0395	3039.5	0.66163
3288.1	3.0413	3041.3	0.66182
3286.1	3.0431	3043.1	0.66189
3284.2	3.0449	3044.9	0.66195
3282.2	3.0467	3046.7	0.66198
3280.3	3.0485	3048.5	0.66196
3278.4	3.0503	3050.3	0.66201
3276.4	3.0521	3052.1	0.66198
3274.6	3.0538	3053.8	0.66186
3272.7	3.0556	3055.6	0.66174
3270.8	3.0574	3057.4	0.66164
3268.7	3.0593	3059.3	0.66184
3266.8	3.0611	3061.1	0.66200
3264.9	3.0629	3062.9	0.66200
3263.0	3.0647	3064.7	0.66196
3261.0	3.0665	3066.5	0.66200
3259.1	3.0683	3068.3	0.66205
3257.2	3.0701	3070.1	0.66198
3255.3	3.0719	3071.9	0.66192
3253.3	3.0738	3073.8	0.66199
3251.4	3.0756	3075.6	0.66196
3249.5	3.0774	3077.4	0.66195
3247.6	3.0792	3079.2	0.66187
3245.6	3.0811	3081.1	0.66185
3243.7	3.0829	3082.9	0.66190
3241.8	3.0847	3084.7	0.66195
3239.8	3.0866	3086.6	0.66197
3237.9	3.0884	3088.4	0.66200
3236.0	3.0902	3090.2	0.66203
3234.0	3.0921	3092.1	0.66187
3232.2	3.0939	3093.9	0.66184
3230.2	3.0958	3095.8	0.66200
3228.3	3.0976	3097.6	0.66209
3226.3	3.0995	3099.5	0.66218
3224.5	3.1013	3101.3	0.66223
3222.5	3.1032	3103.2	0.66229
3220.5	3.1051	3105.1	0.66227
3218.6	3.1069	3106.9	0.66227
3216.7	3.1088	3108.8	0.66231
3214.8	3.1106	3110.6	0.66240
3212.9	3.1125	3112.5	0.66248
3210.9	3.1144	3114.4	0.66255
3209.0	3.1162	3116.2	0.66260
3207.1	3.1181	3118.1	0.66264
3205.1	3.1200	3120.0	0.66263
3203.2	3.1219	3121.9	0.66265
3201.2	3.1238	3123.8	0.66273
3199.4	3.1256	3125.6	0.66285
3197.4	3.1275	3127.5	0.66298
3195.5	3.1294	3129.4	0.66305
3193.6	3.1313	3131.3	0.66309
3191.6	3.1332	3133.2	0.66309
3189.7	3.1351	3135.1	0.66314
3187.8	3.1370	3137.0	0.66326
3185.8	3.1389	3138.9	0.66331
3183.9	3.1408	3140.8	0.66331
3182.0	3.1427	3142.7	0.66335
3180.1	3.1446	3144.6	0.66339
3178.1	3.1465	3146.5	0.66345
3176.2	3.1484	3148.4	0.66357
3174.3	3.1503	3150.3	0.66370
3172.4	3.1522	3152.2	0.66370
3170.5	3.1541	3154.1	0.66369
3168.5	3.1561	3156.1	0.66378
3166.6	3.1580	3158.0	0.66388
3164.7	3.1599	3159.9	0.66397
3162.7	3.1619	3161.9	0.66404
3160.8	3.1638	3163.8	0.66415
3158.9	3.1657	3165.7	0.66424
3157.0	3.1676	3167.6	0.66432
3155.0	3.1696	3169.6	0.66430
3153.1	3.1715	3171.5	0.66406
3151.2	3.1734	3173.4	0.66404
3149.2	3.1754	3175.4	0.66434
3147.3	3.1773	3177.3	0.66452
3145.3	3.1793	3179.3	0.66457
3143.5	3.1812	3181.2	0.66462
3141.5	3.1832	3183.2	0.66465
3139.6	3.1851	3185.1	0.66454
3137.6	3.1871	3187.1	0.66463
3135.7	3.1891	3189.1	0.66481
3133.8	3.1910	3191.0	0.66488
3131.9	3.1930	3193.0	0.66485
3129.9	3.1950	3195.0	0.66488
3128.0	3.1969	3196.9	0.66501
3126.1	3.1989	3198.9	0.66509
3124.1	3.2009	3200.9	0.66507
3122.2	3.2029	3202.9	0.66499
3120.3	3.2048	3204.8	0.66476
3118.4	3.2068	3206.8	0.66473
3116.4	3.2088	3208.8	0.66477
3114.5	3.2108	3210.8	0.66497
3112.5	3.2128	3212.8	0.66517
3110.6	3.2148	3214.8	0.66519
3108.7	3.2168	3216.8	0.66513
3106.7	3.2188	3218.8	0.66526
3104.8	3.2208	3220.8	0.66540
3102.9	3.2228	3222.8	0.66545
3101.0	3.2248	3224.8	0.66537
3099.0	3.2268	3226.8	0.66531
3097.1	3.2288	3228.8	0.66537
3095.2	3.2308	3230.8	0.66548
3093.3	3.2328	3232.8	0.66548
3091.4	3.2348	3234.8	0.66529
3089.5	3.2368	3236.8	0.66516
3087.5	3.2389	3238.9	0.66523
3085.6	3.2409	3240.9	0.66513
3083.7	3.2429	3242.9	0.66503
3081.8	3.2449	3244.9	0.66498
3079.8	3.2470	3247.0	0.66486
3077.9	3.2490	3249.0	0.66483
3075.9	3.2511	3251.1	0.66495
3074.0	3.2531	3253.1	0.66504
3072.1	3.2551	3255.1	0.66500
3070.1	3.2572	3257.2	0.66486
3068.2	3.2592	3259.2	0.66469
3066.3	3.2613	3261.3	0.66464
3064.4	3.2633	3263.3	0.66472
3062.4	3.2654	3265.4	0.66472
3060.5	3.2674	3267.4	0.66475
3058.6	3.2695	3269.5	0.66474
3056.6	3.2716	3271.6	0.66466
3054.7	3.2736	3273.6	0.66455
3052.8	3.2757	3275.7	0.66450
3050.8	3.2778	3277.8	0.66441
3049.0	3.2798	3279.8	0.66438
3047.0	3.2819	3281.9	0.66429
3045.1	3.2840	3284.0	0.66408
3043.1	3.2861	3286.1	0.66391
3041.2	3.2882	3288.2	0.66383
3039.3	3.2902	3290.2	0.66386
3037.4	3.2923	3292.3	0.66386
3035.5	3.2944	3294.4	0.66363
3033.5	3.2965	3296.5	0.66342
3031.6	3.2986	3298.6	0.66339
3029.7	3.3007	3300.7	0.66336
3027.7	3.3028	3302.8	0.66333
3025.8	3.3049	3304.9	0.66320
3023.9	3.3070	3307.0	0.66305
3022.0	3.3091	3309.1	0.66296
3020.0	3.3113	3311.3	0.66281
3018.0	3.3134	3313.4	0.66265
3016.1	3.3155	3315.5	0.66243
3014.2	3.3176	3317.6	0.66209
3012.3	3.3197	3319.7	0.66183
3010.3	3.3219	3321.9	0.66176
3008.4	3.3240	3324.0	0.66179
3006.5	3.3261	3326.1	0.66158
3004.5	3.3283	3328.3	0.66128
3002.6	3.3304	3330.4	0.66102
3000.8	3.3325	3332.5	0.66070
2998.8	3.3347	3334.7	0.66029
2996.9	3.3368	3336.8	0.65988
2994.9	3.3390	3339.0	0.65952
2993.0	3.3411	3341.1	0.65910
2991.1	3.3433	3343.3	0.65863
2989.2	3.3454	3345.4	0.65813
2987.2	3.3476	3347.6	0.65755
2985.3	3.3498	3349.8	0.65692
2983.4	3.3519	3351.9	0.65617
2981.4	3.3541	3354.1	0.65525
2979.5	3.3563	3356.3	0.65420
2977.6	3.3584	3358.4	0.65312
2975.7	3.3606	3360.6	0.65179
2973.7	3.3628	3362.8	0.65007
2971.8	3.3650	3365.0	0.64803
2969.8	3.3672	3367.2	0.64576
2967.9	3.3694	3369.4	0.64349
2966.0	3.3715	3371.5	0.64144
2964.1	3.3737	3373.7	0.63966
2962.2	3.3759	3375.9	0.63811
2960.2	3.3781	3378.1	0.63698
2958.3	3.3803	3380.3	0.63648
2956.4	3.3825	3382.5	0.63646
2954.5	3.3847	3384.7	0.63657
2952.6	3.3869	3386.9	0.63667
2950.5	3.3892	3389.2	0.63681
2948.6	3.3914	3391.4	0.63661
2946.7	3.3936	3393.6	0.63589
2944.8	3.3958	3395.8	0.63472
2942.8	3.3981	3398.1	0.63322
2940.9	3.4003	3400.3	0.63134
2939.0	3.4025	3402.5	0.62906
2937.1	3.4047	3404.7	0.62654
2935.1	3.4070	3407.0	0.62383
2933.2	3.4092	3409.2	0.62111
2931.3	3.4115	3411.5	0.61861
2929.4	3.4137	3413.7	0.61657
2927.4	3.4160	3416.0	0.61532
2925.5	3.4182	3418.2	0.61502
2923.5	3.4205	3420.5	0.61583
2921.7	3.4227	3422.7	0.61770
2919.7	3.4250	3425.0	0.62017
2917.7	3.4273	3427.3	0.62276
2915.9	3.4295	3429.5	0.62522
2913.9	3.4318	3431.8	0.62725
2912.0	3.4341	3434.1	0.62908
2910.1	3.4363	3436.3	0.63065
2908.2	3.4386	3438.6	0.63187
2906.2	3.4409	3440.9	0.63289
2904.3	3.4432	3443.2	0.63379
2902.3	3.4455	3445.5	0.63465
2900.4	3.4478	3447.8	0.63542
2898.5	3.4501	3450.1	0.63607
2896.5	3.4524	3452.4	0.63663
2894.7	3.4546	3454.6	0.63728
2892.8	3.4569	3456.9	0.63797
2890.8	3.4593	3459.3	0.63849
2888.8	3.4616	3461.6	0.63886
2886.9	3.4639	3463.9	0.63906
2885.0	3.4662	3466.2	0.63900
2883.1	3.4685	3468.5	0.63864
2881.2	3.4708	3470.8	0.63813
2879.2	3.4732	3473.2	0.63751
2877.3	3.4755	3475.5	0.63679
2875.4	3.4778	3477.8	0.63596
2873.5	3.4801	3480.1	0.63502
2871.5	3.4825	3482.5	0.63436
2869.6	3.4848	3484.8	0.63379
2867.6	3.4872	3487.2	0.63299
2865.7	3.4895	3489.5	0.63201
2863.8	3.4919	3491.9	0.63075
2861.9	3.4942	3494.2	0.62923
2859.9	3.4966	3496.6	0.62757
2858.0	3.4989	3498.9	0.62615
2856.1	3.5013	3501.3	0.62538
2854.1	3.5037	3503.7	0.62557
2852.3	3.5060	3506.0	0.62671
2850.3	3.5084	3508.4	0.62845
2848.4	3.5108	3510.8	0.63041
2846.4	3.5132	3513.2	0.63228
2844.5	3.5155	3515.5	0.63393
2842.6	3.5179	3517.9	0.63532
2840.7	3.5203	3520.3	0.63648
2838.7	3.5227	3522.7	0.63742
2836.8	3.5251	3525.1	0.63827
2834.9	3.5275	3527.5	0.63891
2832.9	3.5299	3529.9	0.63934
2831.0	3.5323	3532.3	0.63960
2829.1	3.5347	3534.7	0.63970
2827.2	3.5371	3537.1	0.63969
2825.3	3.5395	3539.5	0.63960
2823.3	3.5419	3541.9	0.63947
2821.4	3.5444	3544.4	0.63932
2819.4	3.5468	3546.8	0.63915
2817.5	3.5492	3549.2	0.63893
2815.6	3.5517	3551.7	0.63870
2813.7	3.5541	3554.1	0.63843
2811.8	3.5565	3556.5	0.63817
2809.8	3.5590	3559.0	0.63788
2807.9	3.5614	3561.4	0.63763
2805.9	3.5639	3563.9	0.63739
2804.0	3.5663	3566.3	0.63714
2802.1	3.5688	3568.8	0.63681
2800.2	3.5712	3571.2	0.63645
2798.2	3.5737	3573.7	0.63610
2796.3	3.5761	3576.1	0.63577
2794.4	3.5786	3578.6	0.63545
2792.4	3.5811	3581.1	0.63510
2790.5	3.5836	3583.6	0.63471
2788.6	3.5860	3586.0	0.63437
2786.7	3.5885	3588.5	0.63404
2784.7	3.5910	3591.0	0.63369
2782.8	3.5935	3593.5	0.63330
2780.9	3.5960	3596.0	0.63292
2778.9	3.5985	3598.5	0.63255
2777.0	3.6010	3601.0	0.63214
2775.1	3.6035	3603.5	0.63166
2773.2	3.6060	3606.0	0.63125
2771.2	3.6085	3608.5	0.63085
2769.3	3.6110	3611.0	0.63042
2767.4	3.6135	3613.5	0.62997
2765.4	3.6161	3616.1	0.62951
2763.5	3.6186	3618.6	0.62908
2761.6	3.6211	3621.1	0.62873
2759.7	3.6236	3623.6	0.62831
2757.7	3.6262	3626.2	0.62784
2755.8	3.6287	3628.7	0.62733
2753.8	3.6313	3631.3	0.62682
2751.9	3.6338	3633.8	0.62630
2750.0	3.6363	3636.3	0.62586
2748.1	3.6389	3638.9	0.62544
2746.2	3.6414	3641.4	0.62498
2744.2	3.6440	3644.0	0.62447
2742.3	3.6466	3646.6	0.62394
2740.4	3.6491	3649.1	0.62343
2738.5	3.6517	3651.7	0.62291
2736.5	3.6543	3654.3	0.62245
2734.6	3.6569	3656.9	0.62203
2732.7	3.6594	3659.4	0.62150
2730.7	3.6620	3662.0	0.62106
2728.8	3.6646	3664.6	0.62064
2726.9	3.6672	3667.2	0.62015
2724.9	3.6698	3669.8	0.61966
2723.0	3.6724	3672.4	0.61922
2721.1	3.6750	3675.0	0.61877
2719.2	3.6776	3677.6	0.61832
2717.2	3.6802	3680.2	0.61791
2715.3	3.6828	3682.8	0.61749
2713.4	3.6854	3685.4	0.61698
2711.4	3.6881	3688.1	0.61650
2709.5	3.6907	3690.7	0.61599
2707.6	3.6933	3693.3	0.61549
2705.7	3.6959	3695.9	0.61499
2703.7	3.6986	3698.6	0.61454
2701.8	3.7012	3701.2	0.61404
2699.9	3.7039	3703.9	0.61349
2698.0	3.7065	3706.5	0.61297
2696.0	3.7092	3709.2	0.61253
2694.1	3.7118	3711.8	0.61201
2692.2	3.7145	3714.5	0.61149
2690.3	3.7171	3717.1	0.61098
2688.3	3.7198	3719.8	0.61044
2686.4	3.7225	3722.5	0.60988
2684.4	3.7252	3725.2	0.60937
2682.5	3.7278	3727.8	0.60879
2680.6	3.7305	3730.5	0.60825
2678.7	3.7332	3733.2	0.60774
2676.7	3.7359	3735.9	0.60720
2674.8	3.7386	3738.6	0.60665
2672.9	3.7413	3741.3	0.60611
2670.9	3.7440	3744.0	0.60554
2669.0	3.7467	3746.7	0.60502
2667.1	3.7494	3749.4	0.60449
2665.2	3.7521	3752.1	0.60391
2663.3	3.7548	3754.8	0.60334
2661.3	3.7576	3757.6	0.60278
2659.4	3.7603	3760.3	0.60228
2657.5	3.7630	3763.0	0.60180
2655.5	3.7657	3765.7	0.60123
2653.6	3.7685	3768.5	0.60071
2651.7	3.7712	3771.2	0.60020
2649.7	3.7740	3774.0	0.59963
2647.8	3.7767	3776.7	0.59899
2645.9	3.7795	3779.5	0.59838
2644.0	3.7822	3782.2	0.59780
2642.0	3.7850	3785.0	0.59724
2640.1	3.7877	3787.7	0.59664
2638.2	3.7905	3790.5	0.59605
2636.2	3.7933	3793.3	0.59548
2634.3	3.7961	3796.1	0.59496
2632.4	3.7988	3798.8	0.59440
2630.5	3.8016	3801.6	0.59384
2628.5	3.8044	3804.4	0.59324
2626.6	3.8072	3807.2	0.59272
2624.7	3.8100	3810.0	0.59218
2622.7	3.8128	3812.8	0.59160
2620.8	3.8156	3815.6	0.59095
2618.9	3.8184	3818.4	0.59035
2617.0	3.8212	3821.2	0.58978
2615.0	3.8241	3824.1	0.58917
2613.1	3.8269	3826.9	0.58858
2611.2	3.8297	3829.7	0.58803
2609.3	3.8325	3832.5	0.58739
2607.3	3.8354	3835.4	0.58680
2605.4	3.8382	3838.2	0.58625
2603.4	3.8411	3841.1	0.58574
2601.5	3.8439	3843.9	0.58518
2599.6	3.8468	3846.8	0.58466
2597.7	3.8496	3849.6	0.58407
2595.7	3.8525	3852.5	0.58345
2593.8	3.8553	3855.3	0.58284
2591.9	3.8582	3858.2	0.58232
2589.9	3.8611	3861.1	0.58176
2588.1	3.8639	3863.9	0.58118
2586.1	3.8668	3866.8	0.58061
2584.2	3.8697	3869.7	0.58003
2582.2	3.8726	3872.6	0.57945
2580.3	3.8755	3875.5	0.57891
2578.4	3.8784	3878.4	0.57835
2576.5	3.8813	3881.3	0.57777
2574.5	3.8842	3884.2	0.57718
2572.6	3.8871	3887.1	0.57668
2570.7	3.8900	3890.0	0.57609
2568.7	3.8930	3893.0	0.57550
2566.8	3.8959	3895.9	0.57489
2564.9	3.8988	3898.8	0.57438
2563.0	3.9017	3901.7	0.57386
2561.0	3.9047	3904.7	0.57329
2559.1	3.9076	3907.6	0.57265
2557.2	3.9106	3910.6	0.57202
2555.3	3.9135	3913.5	0.57139
2553.3	3.9165	3916.5	0.57081
2551.4	3.9194	3919.4	0.57022
2549.5	3.9224	3922.4	0.56966
2547.5	3.9254	3925.4	0.56905
2545.6	3.9284	3928.4	0.56841
2543.7	3.9313	3931.3	0.56774
2541.7	3.9343	3934.3	0.56715
2539.8	3.9373	3937.3	0.56653
2537.9	3.9403	3940.3	0.56594
2535.9	3.9433	3943.3	0.56534
2534.0	3.9463	3946.3	0.56476
2532.1	3.9493	3949.3	0.56409
2530.2	3.9523	3952.3	0.56342
2528.3	3.9553	3955.3	0.56276
2526.3	3.9583	3958.3	0.56205
2524.4	3.9614	3961.4	0.56137
2522.4	3.9644	3964.4	0.56077
2520.5	3.9674	3967.4	0.56009
2518.6	3.9705	3970.5	0.55943
2516.7	3.9735	3973.5	0.55876
2514.7	3.9766	3976.6	0.55811
2512.8	3.9796	3979.6	0.55745
2510.9	3.9826	3982.6	0.55682
2509.0	3.9857	3985.7	0.55613
2507.0	3.9888	3988.8	0.55546
2505.1	3.9919	3991.9	0.55477
2503.2	3.9949	3994.9	0.55411
2501.3	3.9980	3998.0	0.55341
2499.3	4.0011	4001.1	0.55274
2497.4	4.0042	4004.2	0.55206
2495.4	4.0073	4007.3	0.55143
2493.5	4.0104	4010.4	0.55071
2491.6	4.0135	4013.5	0.54997
2489.7	4.0166	4016.6	0.54920
2487.7	4.0197	4019.7	0.54850
2485.8	4.0228	4022.8	0.54779
2483.9	4.0259	4025.9	0.54708
2481.9	4.0291	4029.1	0.54634
2480.0	4.0322	4032.2	0.54566
2478.1	4.0353	4035.3	0.54494
2476.2	4.0385	4038.5	0.54428
2474.3	4.0416	4041.6	0.54362
2472.3	4.0448	4044.8	0.54296
2470.4	4.0479	4047.9	0.54225
2468.5	4.0511	4051.1	0.54160
2466.5	4.0543	4054.3	0.54095
2464.6	4.0574	4057.4	0.54034
2462.7	4.0606	4060.6	0.53973
2460.8	4.0638	4063.8	0.53911
2458.8	4.0670	4067.0	0.53849
2456.9	4.0702	4070.2	0.53793
2455.0	4.0734	4073.4	0.53731
2453.0	4.0766	4076.6	0.53674
2451.1	4.0798	4079.8	0.53613
2449.2	4.0830	4083.0	0.53553
2447.3	4.0862	4086.2	0.53491
2445.3	4.0894	4089.4	0.53435
2443.4	4.0927	4092.7	0.53374
2441.5	4.0959	4095.9	0.53316
2439.6	4.0991	4099.1	0.53252
2437.6	4.1024	4102.4	0.53187
2435.7	4.1056	4105.6	0.53124
2433.7	4.1089	4108.9	0.53063
2431.8	4.1121	4112.1	0.52998
2429.9	4.1154	4115.4	0.52934
2428.0	4.1187	4118.7	0.52863
2426.0	4.1220	4122.0	0.52798
2424.1	4.1252	4125.2	0.52730
2422.2	4.1285	4128.5	0.52666
2420.3	4.1318	4131.8	0.52597
2418.3	4.1351	4135.1	0.52530
2416.4	4.1384	4138.4	0.52460
2414.5	4.1417	4141.7	0.52393
2412.5	4.1450	4145.0	0.52321
2410.6	4.1483	4148.3	0.52250
2408.7	4.1516	4151.6	0.52180
2406.7	4.1550	4155.0	0.52113
2404.8	4.1583	4158.3	0.52049
2402.9	4.1616	4161.6	0.51983
2401.0	4.1650	4165.0	0.51911
2399.1	4.1683	4168.3	0.51844
2397.1	4.1717	4171.7	0.51773
2395.2	4.1750	4175.0	0.51702
2393.3	4.1784	4178.4	0.51623
2391.3	4.1818	4181.8	0.51547
2389.4	4.1852	4185.2	0.51474
2387.5	4.1885	4188.5	0.51401
2385.6	4.1919	4191.9	0.51319
2383.6	4.1953	4195.3	0.51237
2381.7	4.1987	4198.7	0.51142
2379.8	4.2021	4202.1	0.51034
2377.8	4.2055	4205.5	0.50904
2375.9	4.2089	4208.9	0.50764
2373.9	4.2124	4212.4	0.50605
2372.0	4.2158	4215.8	0.50434
2370.1	4.2192	4219.2	0.50254
2368.2	4.2226	4222.6	0.50083
2366.2	4.2261	4226.1	0.49914
2364.3	4.2295	4229.5	0.49762
2362.4	4.2330	4233.0	0.49631
2360.4	4.2365	4236.5	0.49539
2358.5	4.2399	4239.9	0.49476
2356.6	4.2434	4243.4	0.49447
2354.7	4.2469	4246.9	0.49435
2352.8	4.2503	4250.3	0.49437
2350.8	4.2538	4253.8	0.49435
2348.9	4.2573	4257.3	0.49393
2347.0	4.2608	4260.8	0.49276
2345.1	4.2643	4264.3	0.49133
2343.1	4.2678	4267.8	0.49000
2341.2	4.2714	4271.4	0.48901
2339.2	4.2749	4274.9	0.48829
2337.3	4.2784	4278.4	0.48777
2335.4	4.2819	4281.9	0.48732
2333.4	4.2855	4285.5	0.48710
2331.5	4.2890	4289.0	0.48692
2329.6	4.2926	4292.6	0.48685
2327.7	4.2961	4296.1	0.48677
2325.7	4.2997	4299.7	0.48669
2323.8	4.3033	4303.3	0.48652
2321.9	4.3068	4306.8	0.48638
2320.0	4.3104	4310.4	0.48623
2318.0	4.3140	4314.0	0.48612
2316.1	4.3176	4317.6	0.48588
2314.2	4.3212	4321.2	0.48560
2312.2	4.3248	4324.8	0.48521
2310.3	4.3284	4328.4	0.48483
2308.4	4.3320	4332.0	0.48439
2306.5	4.3356	4335.6	0.48392
2304.5	4.3393	4339.3	0.48334
2302.6	4.3429	4342.9	0.48275
2300.7	4.3465	4346.5	0.48211
2298.7	4.3502	4350.2	0.48153
2296.8	4.3538	4353.8	0.48088
2294.9	4.3575	4357.5	0.48026
2293.0	4.3611	4361.1	0.47956
2291.1	4.3648	4364.8	0.47886
2289.1	4.3685	4368.5	0.47818
2287.2	4.3722	4372.2	0.47755
2285.2	4.3759	4375.9	0.47687
2283.3	4.3796	4379.6	0.47623
2281.4	4.3833	4383.3	0.47559
2279.5	4.3870	4387.0	0.47493
2277.5	4.3907	4390.7	0.47416
2275.6	4.3944	4394.4	0.47347
2273.7	4.3981	4398.1	0.47281
2271.7	4.4019	4401.9	0.47218
2269.8	4.4056	4405.6	0.47147
2267.9	4.4094	4409.4	0.47077
2266.0	4.4131	4413.1	0.47006
2264.0	4.4169	4416.9	0.46945
2262.1	4.4206	4420.6	0.46881
2260.2	4.4244	4424.4	0.46816
2258.3	4.4282	4428.2	0.46744
2256.3	4.4320	4432.0	0.46677
2254.4	4.4358	4435.8	0.46604
2252.5	4.4396	4439.6	0.46528
2250.5	4.4434	4443.4	0.46457
2248.6	4.4472	4447.2	0.46394
2246.7	4.4510	4451.0	0.46326
2244.8	4.4548	4454.8	0.46259
2242.9	4.4586	4458.6	0.46185
2240.9	4.4625	4462.5	0.46119
2239.0	4.4663	4466.3	0.46050
2237.0	4.4702	4470.2	0.45980
2235.1	4.4740	4474.0	0.45905
2233.2	4.4779	4477.9	0.45835
2231.2	4.4818	4481.8	0.45760
2229.4	4.4856	4485.6	0.45692
2227.4	4.4895	4489.5	0.45623
2225.5	4.4934	4493.4	0.45557
2223.6	4.4973	4497.3	0.45489
2221.6	4.5012	4501.2	0.45424
2219.7	4.5051	4505.1	0.45354
2217.8	4.5090	4509.0	0.45290
2215.8	4.5130	4513.0	0.45226
2213.9	4.5169	4516.9	0.45160
2212.0	4.5208	4520.8	0.45090
2210.0	4.5248	4524.8	0.45029
2208.1	4.5287	4528.7	0.44962
2206.2	4.5327	4532.7	0.44893
2204.2	4.5367	4536.7	0.44824
2202.4	4.5406	4540.6	0.44761
2200.4	4.5446	4544.6	0.44695
2198.5	4.5486	4548.6	0.44630
2196.5	4.5526	4552.6	0.44563
2194.6	4.5566	4556.6	0.44499
2192.7	4.5606	4560.6	0.44429
2190.8	4.5646	4564.6	0.44364
2188.9	4.5686	4568.6	0.44294
2186.9	4.5727	4572.7	0.44227
2185.0	4.5767	4576.7	0.44158
2183.0	4.5808	4580.8	0.44089
2181.1	4.5848	4584.8	0.44014
2179.2	4.5889	4588.9	0.43948
2177.3	4.5929	4592.9	0.43875
2175.3	4.5970	4597.0	0.43804
2173.4	4.6011	4601.1	0.43730
2171.5	4.6052	4605.2	0.43663
2169.5	4.6093	4609.3	0.43595
2167.6	4.6134	4613.4	0.43529
2165.7	4.6175	4617.5	0.43457
2163.8	4.6216	4621.6	0.43393
2161.8	4.6257	4625.7	0.43328
2159.9	4.6298	4629.8	0.43264
2158.0	4.6340	4634.0	0.43192
2156.1	4.6381	4638.1	0.43127
2154.1	4.6423	4642.3	0.43062
2152.2	4.6464	4646.4	0.42999
2150.3	4.6506	4650.6	0.42929
2148.3	4.6548	4654.8	0.42864
2146.4	4.6590	4659.0	0.42799
2144.5	4.6631	4663.1	0.42735
2142.6	4.6673	4667.3	0.42664
2140.6	4.6715	4671.5	0.42598
2138.7	4.6758	4675.8	0.42529
2136.8	4.6800	4680.0	0.42463
2134.8	4.6842	4684.2	0.42392
2132.9	4.6884	4688.4	0.42327
2131.0	4.6927	4692.7	0.42257
2129.1	4.6969	4696.9	0.42191
2127.1	4.7012	4701.2	0.42128
2125.2	4.7055	4705.5	0.42066
2123.3	4.7097	4709.7	0.41996
2121.3	4.7140	4714.0	0.41931
2119.4	4.7183	4718.3	0.41864
2117.5	4.7226	4722.6	0.41802
2115.6	4.7269	4726.9	0.41736
2113.6	4.7312	4731.2	0.41671
2111.7	4.7355	4735.5	0.41604
2109.7	4.7399	4739.9	0.41545
2107.8	4.7442	4744.2	0.41482
2105.9	4.7485	4748.5	0.41422
2104.0	4.7529	4752.9	0.41353
2102.0	4.7573	4757.3	0.41287
2100.1	4.7616	4761.6	0.41218
2098.2	4.7660	4766.0	0.41156
2096.3	4.7704	4770.4	0.41090
2094.3	4.7748	4774.8	0.41026
2092.4	4.7792	4779.2	0.40959
2090.5	4.7836	4783.6	0.40892
2088.6	4.7880	4788.0	0.40819
2086.6	4.7924	4792.4	0.40755
2084.7	4.7969	4796.9	0.40689
2082.8	4.8013	4801.3	0.40623
2080.8	4.8058	4805.8	0.40556
2078.9	4.8102	4810.2	0.40492
2077.0	4.8147	4814.7	0.40421
2075.1	4.8191	4819.1	0.40357
2073.1	4.8236	4823.6	0.40288
2071.2	4.8281	4828.1	0.40221
2069.3	4.8326	4832.6	0.40147
2067.4	4.8371	4837.1	0.40077
2065.4	4.8416	4841.6	0.40003
2063.5	4.8462	4846.2	0.39931
2061.6	4.8507	4850.7	0.39855
2059.6	4.8553	4855.3	0.39786
2057.7	4.8598	4859.8	0.39712
2055.8	4.8644	4864.4	0.39637
2053.9	4.8689	4868.9	0.39552
2051.9	4.8735	4873.5	0.39472
2050.0	4.8781	4878.1	0.39388
2048.0	4.8827	4882.7	0.39308
2046.1	4.8873	4887.3	0.39222
2044.2	4.8919	4891.9	0.39134
2042.3	4.8965	4896.5	0.39039
2040.4	4.9011	4901.1	0.38942
2038.4	4.9058	4905.8	0.38840
2036.5	4.9104	4910.4	0.38743
2034.5	4.9151	4915.1	0.38633
2032.6	4.9197	4919.7	0.38515
2030.7	4.9244	4924.4	0.38391
2028.8	4.9291	4929.1	0.38266
2026.8	4.9338	4933.8	0.38126
2024.9	4.9385	4938.5	0.37990
2023.0	4.9432	4943.2	0.37848
2021.1	4.9479	4947.9	0.37699
2019.1	4.9526	4952.6	0.37536
2017.2	4.9574	4957.4	0.37369
2015.3	4.9621	4962.1	0.37198
2013.3	4.9669	4966.9	0.37025
2011.4	4.9716	4971.6	0.36838
2009.5	4.9764	4976.4	0.36652
2007.5	4.9812	4981.2	0.36464
2005.6	4.9860	4986.0	0.36277
2003.7	4.9908	4990.8	0.36092
2001.8	4.9956	4995.6	0.35912
1999.8	5.0004	5000.4	0.35731
1997.9	5.0052	5005.2	0.35556
1996.0	5.0100	5010.0	0.35383
1994.1	5.0149	5014.9	0.35224
1992.1	5.0198	5019.8	0.35075
1990.2	5.0246	5024.6	0.34935
1988.3	5.0295	5029.5	0.34804
1986.3	5.0344	5034.4	0.34687
1984.4	5.0393	5039.3	0.34579
1982.5	5.0442	5044.2	0.34483
1980.6	5.0491	5049.1	0.34399
1978.6	5.0540	5054.0	0.34326
1976.7	5.0589	5058.9	0.34258
1974.8	5.0639	5063.9	0.34203
1972.9	5.0688	5068.8	0.34152
1970.9	5.0738	5073.8	0.34106
1969.0	5.0788	5078.8	0.34066
1967.1	5.0837	5083.7	0.34035
1965.1	5.0887	5088.7	0.33999
1963.2	5.0937	5093.7	0.33968
1961.3	5.0987	5098.7	0.33938
1959.4	5.1037	5103.7	0.33907
1957.4	5.1088	5108.8	0.33875
1955.5	5.1138	5113.8	0.33843
1953.5	5.1189	5118.9	0.33811
1951.6	5.1239	5123.9	0.33783
1949.7	5.1290	5129.0	0.33746
1947.8	5.1341	5134.1	0.33709
1945.9	5.1391	5139.1	0.33667
1943.9	5.1443	5144.3	0.33622
1942.0	5.1494	5149.4	0.33572
1940.1	5.1545	5154.5	0.33516
1938.1	5.1596	5159.6	0.33452
1936.2	5.1647	5164.7	0.33389
1934.3	5.1699	5169.9	0.33320
1932.4	5.1750	5175.0	0.33247
1930.4	5.1802	5180.2	0.33165
1928.5	5.1854	5185.4	0.33089
1926.6	5.1906	5190.6	0.33007
1924.6	5.1958	5195.8	0.32919
1922.7	5.2010	5201.0	0.32820
1920.8	5.2062	5206.2	0.32720
1918.8	5.2115	5211.5	0.32616
1916.9	5.2167	5216.7	0.32507
1915.0	5.2220	5222.0	0.32397
1913.1	5.2272	5227.2	0.32287
1911.1	5.2325	5232.5	0.32172
1909.2	5.2378	5237.8	0.32056
1907.3	5.2431	5243.1	0.31935
1905.3	5.2484	5248.4	0.31811
1903.4	5.2537	5253.7	0.31679
1901.5	5.2590	5259.0	0.31543
1899.6	5.2644	5264.4	0.31404
1897.6	5.2697	5269.7	0.31269
1895.7	5.2751	5275.1	0.31130
1893.8	5.2805	5280.5	0.30992
1891.9	5.2858	5285.8	0.30861
1889.9	5.2912	5291.2	0.30740
1888.0	5.2966	5296.6	0.30625
1886.1	5.3020	5302.0	0.30514
1884.1	5.3075	5307.5	0.30409
1882.2	5.3129	5312.9	0.30316
1880.3	5.3184	5318.4	0.30231
1878.4	5.3238	5323.8	0.30154
1876.4	5.3293	5329.3	0.30081
1874.5	5.3348	5334.8	0.30012
1872.6	5.3403	5340.3	0.29948
1870.6	5.3458	5345.8	0.29890
1868.7	5.3513	5351.3	0.29837
1866.8	5.3568	5356.8	0.29785
1864.8	5.3624	5362.4	0.29736
1862.9	5.3679	5367.9	0.29689
1861.0	5.3735	5373.5	0.29640
1859.1	5.3790	5379.0	0.29595
1857.1	5.3846	5384.6	0.29547
1855.2	5.3902	5390.2	0.29489
1853.3	5.3958	5395.8	0.29422
1851.3	5.4015	5401.5	0.29351
1849.4	5.4071	5407.1	0.29272
1847.5	5.4127	5412.7	0.29186
1845.6	5.4184	5418.4	0.29098
1843.6	5.4241	5424.1	0.28990
1841.7	5.4297	5429.7	0.28873
1839.8	5.4354	5435.4	0.28762
1837.9	5.4411	5441.1	0.28638
1835.9	5.4469	5446.9	0.28508
1834.0	5.4526	5452.6	0.28376
1832.1	5.4583	5458.3	0.28245
1830.1	5.4641	5464.1	0.28106
1828.2	5.4698	5469.8	0.27958
1826.3	5.4756	5475.6	0.27825
1824.4	5.4814	5481.4	0.27692
1822.4	5.4872	5487.2	0.27564
1820.5	5.4930	5493.0	0.27443
1818.6	5.4988	5498.8	0.27335
1816.6	5.5047	5504.7	0.27233
1814.7	5.5105	5510.5	0.27142
1812.8	5.5164	5516.4	0.27066
1810.8	5.5223	5522.3	0.26999
1808.9	5.5281	5528.1	0.26934
1807.0	5.5340	5534.0	0.26884
1805.1	5.5400	5540.0	0.26838
1803.1	5.5459	5545.9	0.26799
1801.2	5.5518	5551.8	0.26757
1799.3	5.5578	5557.8	0.26711
1797.4	5.5637	5563.7	0.26659
1795.4	5.5697	5569.7	0.26607
1793.5	5.5757	5575.7	0.26543
1791.6	5.5817	5581.7	0.26464
1789.6	5.5877	5587.7	0.26374
1787.7	5.5937	5593.7	0.26277
1785.8	5.5998	5599.8	0.26159
1783.9	5.6058	5605.8	0.26023
1781.9	5.6119	5611.9	0.25875
1780.0	5.6180	5618.0	0.25711
1778.1	5.6241	5624.1	0.25535
1776.1	5.6302	5630.2	0.25360
1774.2	5.6363	5636.3	0.25182
1772.3	5.6424	5642.4	0.25006
1770.4	5.6486	5648.6	0.24833
1768.4	5.6547	5654.7	0.24693
1766.5	5.6609	5660.9	0.24555
1764.6	5.6671	5667.1	0.24455
1762.6	5.6733	5673.3	0.24384
1760.7	5.6795	5679.5	0.24352
1758.8	5.6857	5685.7	0.24357
1756.9	5.6920	5692.0	0.24421
1754.9	5.6982	5698.2	0.24527
1753.0	5.7045	5704.5	0.24687
1751.1	5.7108	5710.8	0.24890
1749.1	5.7171	5717.1	0.25135
1747.2	5.7234	5723.4	0.25392
1745.3	5.7297	5729.7	0.25665
1743.4	5.7360	5736.0	0.25942
1741.4	5.7424	5742.4	0.26225
1739.5	5.7488	5748.8	0.26501
1737.6	5.7551	5755.1	0.26759
1735.7	5.7615	5761.5	0.26992
1733.7	5.7680	5768.0	0.27240
1731.8	5.7744	5774.4	0.27440
1729.9	5.7808	5780.8	0.27607
1727.9	5.7873	5787.3	0.27754
1726.0	5.7937	5793.7	0.27879
1724.1	5.8002	5800.2	0.27975
1722.1	5.8067	5806.7	0.28039
1720.2	5.8132	5813.2	0.28081
1718.3	5.8198	5819.8	0.28102
1716.4	5.8263	5826.3	0.28088
1714.4	5.8328	5832.8	0.28060
1712.5	5.8394	5839.4	0.28025
1710.6	5.8460	5846.0	0.27992
1708.6	5.8526	5852.6	0.27957
1706.7	5.8592	5859.2	0.27916
1704.8	5.8658	5865.8	0.27871
1702.9	5.8725	5872.5	0.27831
1700.9	5.8791	5879.1	0.27797
1699.0	5.8858	5885.8	0.27734
1697.1	5.8925	5892.5	0.27686
1695.1	5.8992	5899.2	0.27632
1693.2	5.9059	5905.9	0.27577
1691.3	5.9126	5912.6	0.27540
1689.4	5.9194	5919.4	0.27502
1687.4	5.9262	5926.2	0.27474
1685.5	5.9329	5932.9	0.27459
1683.6	5.9397	5939.7	0.27427
1681.7	5.9465	5946.5	0.27402
1679.7	5.9534	5953.4	0.27399
1677.8	5.9602	5960.2	0.27386
1675.9	5.9671	5967.1	0.27365
1673.9	5.9740	5974.0	0.27319
1672.0	5.9808	5980.8	0.27265
1670.1	5.9878	5987.8	0.27197
1668.1	5.9947	5994.7	0.27106
1666.2	6.0016	6001.6	0.27003
1664.3	6.0086	6008.6	0.26901
1662.4	6.0155	6015.5	0.26790
1660.4	6.0225	6022.5	0.26693
1658.5	6.0295	6029.5	0.26626
1656.6	6.0365	6036.5	0.26606
1654.6	6.0436	6043.6	0.26646
1652.7	6.0506	6050.6	0.26753
1650.8	6.0577	6057.7	0.26902
1648.9	6.0648	6064.8	0.27126
1646.9	6.0719	6071.9	0.27447
1645.0	6.0790	6079.0	0.27827
1643.1	6.0861	6086.1	0.28198
1641.1	6.0933	6093.3	0.28594
1639.2	6.1005	6100.5	0.28984
1637.3	6.1076	6107.6	0.29359
1635.4	6.1148	6114.8	0.29720
1633.4	6.1221	6122.1	0.30040
1631.5	6.1293	6129.3	0.30305
1629.6	6.1365	6136.5	0.30562
1627.7	6.1438	6143.8	0.30780
1625.7	6.1511	6151.1	0.30970
1623.8	6.1584	6158.4	0.31133
1621.9	6.1657	6165.7	0.31280
1619.9	6.1731	6173.1	0.31393
1618.0	6.1804	6180.4	0.31513
1616.1	6.1878	6187.8	0.31610
1614.2	6.1952	6195.2	0.31685
1612.2	6.2026	6202.6	0.31744
1610.3	6.2100	6210.0	0.31804
1608.4	6.2175	6217.5	0.31849
1606.4	6.2250	6225.0	0.31890
1604.5	6.2324	6232.4	0.31920
1602.6	6.2399	6239.9	0.31965
1600.6	6.2475	6247.5	0.32004
1598.7	6.2550	6255.0	0.32051
1596.8	6.2625	6262.5	0.32088
1594.9	6.2701	6270.1	0.32129
1592.9	6.2777	6277.7	0.32162
1591.0	6.2853	6285.3	0.32205
1589.1	6.2930	6293.0	0.32248
1587.2	6.3006	6300.6	0.32298
1585.2	6.3083	6308.3	0.32335
1583.3	6.3159	6315.9	0.32381
1581.4	6.3236	6323.6	0.32423
1579.4	6.3314	6331.4	0.32466
1577.5	6.3391	6339.1	0.32510
1575.6	6.3469	6346.9	0.32554
1573.7	6.3546	6354.6	0.32574
1571.7	6.3624	6362.4	0.32612
1569.8	6.3703	6370.3	0.32645
1567.9	6.3781	6378.1	0.32673
1565.9	6.3859	6385.9	0.32695
1564.0	6.3938	6393.8	0.32725
1562.1	6.4017	6401.7	0.32755
1560.2	6.4096	6409.6	0.32801
1558.2	6.4175	6417.5	0.32821
1556.3	6.4255	6425.5	0.32830
1554.4	6.4335	6433.5	0.32847
1552.4	6.4415	6441.5	0.32869
1550.5	6.4495	6449.5	0.32887
1548.6	6.4575	6457.5	0.32904
1546.6	6.4656	6465.6	0.32919
1544.7	6.4736	6473.6	0.32938
1542.8	6.4817	6481.7	0.32947
1540.9	6.4898	6489.8	0.32962
1538.9	6.4980	6498.0	0.32956
1537.0	6.5061	6506.1	0.32941
1535.1	6.5143	6514.3	0.32932
1533.2	6.5225	6522.5	0.32930
1531.2	6.5307	6530.7	0.32917
1529.3	6.5390	6539.0	0.32912
1527.4	6.5472	6547.2	0.32903
1525.4	6.5555	6555.5	0.32898
1523.5	6.5638	6563.8	0.32889
1521.6	6.5721	6572.1	0.32888
1519.7	6.5804	6580.4	0.32875
1517.7	6.5888	6588.8	0.32865
1515.8	6.5972	6597.2	0.32850
1513.9	6.6056	6605.6	0.32843
1511.9	6.6140	6614.0	0.32842
1510.0	6.6225	6622.5	0.32861
1508.1	6.6309	6630.9	0.32893
1506.2	6.6394	6639.4	0.32925
1504.2	6.6479	6647.9	0.32938
1502.3	6.6565	6656.5	0.32966
1500.4	6.6650	6665.0	0.33003
1498.4	6.6736	6673.6	0.33035
1496.5	6.6822	6682.2	0.33055
1494.6	6.6908	6690.8	0.33071
1492.6	6.6995	6699.5	0.33086
1490.7	6.7081	6708.1	0.33107
1489.0	6.7160	6716.0	0.33113
1486.9	6.7255	6725.5	0.33110
1484.9	6.7343	6734.3	0.33096
1483.0	6.7430	6743.0	0.33074
1481.1	6.7518	6751.8	0.33042
1479.2	6.7606	6760.6	0.33001
1477.2	6.7694	6769.4	0.32952
1475.3	6.7783	6778.3	0.32893
1473.4	6.7871	6787.1	0.32815
1471.5	6.7960	6796.0	0.32707
1469.5	6.8050	6805.0	0.32605
1467.6	6.8139	6813.9	0.32515
1465.7	6.8229	6822.9	0.32432
1463.7	6.8319	6831.9	0.32330
1461.8	6.8409	6840.9	0.32221
1459.9	6.8499	6849.9	0.32130
1457.9	6.8590	6859.0	0.32044
1456.0	6.8680	6868.0	0.31930
1454.1	6.8772	6877.2	0.31826
1452.2	6.8863	6886.3	0.31734
1450.2	6.8955	6895.5	0.31647
1448.3	6.9046	6904.6	0.31569
1446.4	6.9138	6913.8	0.31493
1444.4	6.9231	6923.1	0.31426
1442.5	6.9323	6932.3	0.31365
1440.6	6.9416	6941.6	0.31313
1438.7	6.9509	6950.9	0.31273
1436.7	6.9602	6960.2	0.31223
1434.8	6.9696	6969.6	0.31165
1432.9	6.9790	6979.0	0.31115
1430.9	6.9884	6988.4	0.31063
1429.0	6.9978	6997.8	0.31004
1427.1	7.0073	7007.3	0.30939
1425.2	7.0168	7016.8	0.30868
1423.2	7.0263	7026.3	0.30791
1421.3	7.0358	7035.8	0.30707
1419.4	7.0454	7045.4	0.30616
1417.5	7.0549	7054.9	0.30504
1415.5	7.0645	7064.5	0.30390
1413.6	7.0742	7074.2	0.30275
1411.7	7.0839	7083.9	0.30156
1409.7	7.0935	7093.5	0.30031
1407.8	7.1033	7103.3	0.29916
1405.9	7.1130	7113.0	0.29805
1403.9	7.1228	7122.8	0.29701
1402.0	7.1326	7132.6	0.29601
1400.1	7.1424	7142.4	0.29504
1398.2	7.1522	7152.2	0.29404
1396.2	7.1621	7162.1	0.29315
1394.3	7.1720	7172.0	0.29224
1392.4	7.1820	7182.0	0.29141
1390.5	7.1919	7191.9	0.29063
1388.5	7.2019	7201.9	0.28993
1386.6	7.2119	7211.9	0.28913
1384.7	7.2220	7222.0	0.28829
1382.7	7.2320	7232.0	0.28745
1380.8	7.2421	7242.1	0.28653
1378.9	7.2523	7252.3	0.28553
1377.0	7.2624	7262.4	0.28455
1375.0	7.2726	7272.6	0.28361
1373.1	7.2828	7282.8	0.28265
1371.2	7.2931	7293.1	0.28160
1369.2	7.3033	7303.3	0.28063
1367.3	7.3136	7313.6	0.27969
1365.4	7.3240	7324.0	0.27877
1363.5	7.3343	7334.3	0.27786
1361.5	7.3447	7344.7	0.27698
1359.6	7.3551	7355.1	0.27598
1357.7	7.3656	7365.6	0.27502
1355.7	7.3761	7376.1	0.27398
1353.8	7.3866	7386.6	0.27289
1351.9	7.3971	7397.1	0.27173
1349.9	7.4077	7407.7	0.27052
1348.0	7.4183	7418.3	0.26913
1346.1	7.4289	7428.9	0.26770
1344.2	7.4396	7439.6	0.26622
1342.2	7.4503	7450.3	0.26479
1340.3	7.4610	7461.0	0.26327
1338.4	7.4717	7471.7	0.26179
1336.5	7.4825	7482.5	0.26025
1334.5	7.4933	7493.3	0.25864
1332.6	7.5041	7504.1	0.25697
1330.7	7.5150	7515.0	0.25530
1328.7	7.5259	7525.9	0.25350
1326.8	7.5369	7536.9	0.25178
1324.9	7.5479	7547.9	0.24997
1322.9	7.5589	7558.9	0.24822
1321.0	7.5699	7569.9	0.24652
1319.1	7.5810	7581.0	0.24493
1317.2	7.5920	7592.0	0.24342
1315.2	7.6032	7603.2	0.24206
1313.3	7.6144	7614.4	0.24072
1311.4	7.6255	7625.5	0.23955
1309.4	7.6368	7636.8	0.23844
1307.5	7.6480	7648.0	0.23753
1305.6	7.6593	7659.3	0.23669
1303.7	7.6707	7670.7	0.23603
1301.7	7.6820	7682.0	0.23548
1299.8	7.6934	7693.4	0.23512
1297.9	7.7049	7704.9	0.23481
1296.0	7.7163	7716.3	0.23465
1294.0	7.7278	7727.8	0.23447
1292.1	7.7394	7739.4	0.23442
1290.2	7.7509	7750.9	0.23440
1288.2	7.7625	7762.5	0.23433
1286.3	7.7742	7774.2	0.23412
1284.4	7.7858	7785.8	0.23392
1282.5	7.7975	7797.5	0.23353
1280.5	7.8093	7809.3	0.23311
1278.6	7.8211	7821.1	0.23249
1276.7	7.8329	7832.9	0.23185
1274.7	7.8447	7844.7	0.23102
1272.8	7.8566	7856.6	0.23008
1270.9	7.8685	7868.5	0.22900
1269.0	7.8805	7880.5	0.22790
1267.0	7.8925	7892.5	0.22661
1265.1	7.9045	7904.5	0.22528
1263.2	7.9166	7916.6	0.22383
1261.2	7.9287	7928.7	0.22233
1259.3	7.9408	7940.8	0.22072
1257.4	7.9530	7953.0	0.21913
1255.5	7.9652	7965.2	0.21747
1253.5	7.9775	7977.5	0.21582
1251.6	7.9898	7989.8	0.21411
1249.7	8.0021	8002.1	0.21252
1247.7	8.0145	8014.5	0.21082
1245.8	8.0269	8026.9	0.20913
1243.9	8.0393	8039.3	0.20736
1242.0	8.0518	8051.8	0.20564
1240.0	8.0643	8064.3	0.20378
1238.1	8.0769	8076.9	0.20187
1236.2	8.0895	8089.5	0.19988
1234.2	8.1021	8102.1	0.19795
1232.3	8.1148	8114.8	0.19588
1230.4	8.1275	8127.5	0.19380
1228.5	8.1403	8140.3	0.19161
1226.5	8.1531	8153.1	0.18948
1224.6	8.1659	8165.9	0.18723
1222.7	8.1788	8178.8	0.18492
1220.7	8.1917	8191.7	0.18247
1218.8	8.2047	8204.7	0.18020
1216.9	8.2177	8217.7	0.17787
1215.0	8.2307	8230.7	0.17562
1213.0	8.2438	8243.8	0.17327
1211.1	8.2570	8257.0	0.17097
1209.2	8.2701	8270.1	0.16865
1207.2	8.2833	8283.3	0.16643
1205.3	8.2966	8296.6	0.16411
1203.4	8.3099	8309.9	0.16192
1201.5	8.3232	8323.2	0.15971
1199.5	8.3366	8336.6	0.15769
1197.6	8.3500	8350.0	0.15575
1195.7	8.3635	8363.5	0.15408
1193.7	8.3770	8377.0	0.15247
1191.8	8.3905	8390.5	0.15101
1189.9	8.4042	8404.2	0.14940
1188.0	8.4178	8417.8	0.14780
1186.0	8.4315	8431.5	0.14599
1184.1	8.4452	8445.2	0.14416
1182.2	8.4590	8459.0	0.14219
1180.2	8.4728	8472.8	0.14021
1178.3	8.4867	8486.7	0.13808
1176.4	8.5006	8500.6	0.13603
1174.5	8.5145	8514.5	0.13376
1172.5	8.5285	8528.5	0.13162
1170.6	8.5426	8542.6	0.12944
1168.7	8.5567	8556.7	0.12730
1166.8	8.5708	8570.8	0.12506
1164.8	8.5850	8585.0	0.12287
1162.9	8.5993	8599.3	0.12071
1161.0	8.6135	8613.5	0.11871
1159.0	8.6279	8627.9	0.11658
1157.1	8.6423	8642.3	0.11459
1155.2	8.6567	8656.7	0.11254
1153.2	8.6712	8671.2	0.11060
1151.3	8.6857	8685.7	0.10860
1149.4	8.7003	8700.3	0.10664
1147.5	8.7149	8714.9	0.10444
1145.5	8.7295	8729.5	0.10231
1143.6	8.7443	8744.3	0.10009
1141.7	8.7590	8759.0	0.097980
1139.7	8.7739	8773.9	0.095760
1137.8	8.7887	8788.7	0.093600
1135.9	8.8037	8803.7	0.091290
1134.0	8.8186	8818.6	0.089090
1132.0	8.8337	8833.7	0.086890
1130.1	8.8487	8848.7	0.084950
1128.2	8.8638	8863.8	0.083110
1126.3	8.8790	8879.0	0.081460
1124.3	8.8943	8894.3	0.079650
1122.4	8.9095	8909.5	0.078020
1120.5	8.9249	8924.9	0.076220
1118.5	8.9403	8940.3	0.074410
1116.6	8.9557	8955.7	0.072500
1114.7	8.9712	8971.2	0.070770
1112.7	8.9868	8986.8	0.069010
1110.8	9.0023	9002.3	0.067380
1108.9	9.0180	9018.0	0.065640
1107.0	9.0337	9033.7	0.064190
1105.0	9.0495	9049.5	0.062850
1103.1	9.0653	9065.3	0.061700
1101.2	9.0812	9081.2	0.060510
1099.3	9.0971	9097.1	0.059550
1097.3	9.1131	9113.1	0.058550
1095.4	9.1291	9129.1	0.057700
1093.5	9.1452	9145.2	0.056840
1091.5	9.1614	9161.4	0.056300
1089.6	9.1776	9177.6	0.055700
1087.7	9.1939	9193.9	0.055310
1085.8	9.2102	9210.2	0.054970
1083.8	9.2266	9226.6	0.054850
1081.9	9.2430	9243.0	0.054780
1080.0	9.2595	9259.5	0.055060
1078.0	9.2761	9276.1	0.055490
1076.1	9.2927	9292.7	0.056340
1074.2	9.3094	9309.4	0.057370
1072.2	9.3262	9326.2	0.058880
1070.3	9.3430	9343.0	0.060620
1068.4	9.3598	9359.8	0.062680
1066.5	9.3768	9376.8	0.064970
1064.5	9.3938	9393.8	0.067730
1062.6	9.4108	9410.8	0.070630
1060.7	9.4279	9427.9	0.073840
1058.8	9.4451	9445.1	0.077080
1056.8	9.4623	9462.3	0.080480
1054.9	9.4796	9479.6	0.083780
1053.0	9.4970	9497.0	0.087010
1051.0	9.5144	9514.4	0.089830
1049.1	9.5319	9531.9	0.092210
1047.2	9.5494	9549.4	0.093620
1045.3	9.5670	9567.0	0.094290
1043.3	9.5847	9584.7	0.094180
1041.4	9.6025	9602.5	0.093600
1039.5	9.6203	9620.3	0.092620
1037.5	9.6382	9638.2	0.091580
1035.6	9.6561	9656.1	0.090440
1033.7	9.6742	9674.2	0.089350
1031.8	9.6922	9692.2	0.088050
1029.8	9.7104	9710.4	0.086830
1027.9	9.7286	9728.6	0.085600
1026.0	9.7469	9746.9	0.084380
1024.0	9.7652	9765.2	0.083090
1022.1	9.7837	9783.7	0.081980
1020.2	9.8022	9802.2	0.080790
1018.3	9.8207	9820.7	0.079640
1016.3	9.8394	9839.4	0.078380
1014.4	9.8581	9858.1	0.077290
1012.5	9.8768	9876.8	0.076150
1010.5	9.8957	9895.7	0.075130
1008.6	9.9146	9914.6	0.073990
1006.7	9.9336	9933.6	0.072950
1004.8	9.9527	9952.7	0.071890
1002.8	9.9718	9971.8	0.070960
1000.9	9.9910	9991.0	0.070040
998.97	10.010	10010	0.069250
997.04	10.030	10030	0.068390
995.11	10.049	10049	0.067680
993.19	10.069	10069	0.066960
991.26	10.088	10088	0.066520
989.33	10.108	10108	0.066140
987.40	10.128	10128	0.066000
985.46	10.148	10147	0.065950
983.55	10.167	10167	0.066190
981.61	10.187	10187	0.066580
979.68	10.207	10207	0.067160
977.76	10.227	10228	0.067910
975.83	10.248	10248	0.068980
973.90	10.268	10268	0.070020
971.97	10.288	10288	0.071030
970.05	10.309	10309	0.071650
968.11	10.329	10329	0.071860
966.18	10.350	10350	0.071570
964.26	10.371	10371	0.070870
962.32	10.392	10392	0.069510
960.40	10.412	10412	0.067710
958.47	10.433	10433	0.065560
956.54	10.454	10454	0.063670
954.62	10.475	10475	0.062300
952.68	10.497	10497	0.062020
950.76	10.518	10518	0.062320
948.83	10.539	10539	0.062880
946.90	10.561	10561	0.063000
944.97	10.582	10582	0.063190
943.04	10.604	10604	0.064950
941.11	10.626	10626	0.069290
939.19	10.648	10647	0.074910
937.26	10.669	10669	0.080240
935.33	10.691	10691	0.084490
933.40	10.714	10714	0.087900
931.47	10.736	10736	0.090370
929.54	10.758	10758	0.092070
927.62	10.780	10780	0.093110
925.69	10.803	10803	0.093680
923.75	10.825	10825	0.093780
921.83	10.848	10848	0.093760
919.90	10.871	10871	0.093520
917.97	10.894	10894	0.093270
916.04	10.917	10917	0.092820
914.12	10.939	10940	0.092550
912.18	10.963	10963	0.092250
910.26	10.986	10986	0.091920
908.33	11.009	11009	0.091450
906.40	11.033	11033	0.091090
904.47	11.056	11056	0.090630
902.54	11.080	11080	0.090330
900.62	11.104	11104	0.090090
898.68	11.127	11127	0.089820
896.76	11.151	11151	0.089510
894.83	11.175	11175	0.089300
892.90	11.200	11200	0.088950
890.97	11.224	11224	0.088670
889.05	11.248	11248	0.088390
887.11	11.273	11272	0.088070
885.18	11.297	11297	0.087500
883.26	11.322	11322	0.086820
881.33	11.347	11347	0.085830
879.40	11.371	11371	0.084590
877.47	11.396	11396	0.083050
875.54	11.422	11422	0.081340
873.61	11.447	11447	0.079380
871.69	11.472	11472	0.077320
869.75	11.498	11497	0.075040
867.83	11.523	11523	0.072710
865.90	11.549	11549	0.070070
863.98	11.574	11574	0.067280
862.05	11.600	11600	0.064690
860.12	11.626	11626	0.062530
858.18	11.653	11653	0.060560
856.26	11.679	11679	0.059010
854.33	11.705	11705	0.057630
852.40	11.732	11732	0.056500
850.47	11.758	11758	0.055290
848.54	11.785	11785	0.054080
846.62	11.812	11812	0.052830
844.69	11.839	11839	0.051290
842.76	11.866	11866	0.049060
840.83	11.893	11893	0.046690
838.91	11.920	11920	0.045230
836.97	11.948	11948	0.045870
835.05	11.975	11975	0.048180
833.12	12.003	12003	0.050890
831.19	12.031	12031	0.053020
829.26	12.059	12059	0.055090
827.33	12.087	12087	0.057240
825.40	12.115	12115	0.059690
823.47	12.144	12144	0.062580
821.54	12.172	12172	0.066000
819.62	12.201	12201	0.069390
817.69	12.230	12230	0.073060
815.76	12.259	12258	0.077090
813.83	12.288	12288	0.081150
811.90	12.317	12317	0.084920
809.97	12.346	12346	0.088600
808.05	12.375	12376	0.092140
806.11	12.405	12405	0.095330
804.19	12.435	12435	0.098410
802.26	12.465	12465	0.10157
800.33	12.495	12495	0.10444
798.40	12.525	12525	0.10727
796.48	12.555	12555	0.11001
794.55	12.586	12586	0.11275
792.62	12.616	12616	0.11542
790.69	12.647	12647	0.11802
788.76	12.678	12678	0.12040
786.83	12.709	12709	0.12285
784.90	12.740	12740	0.12506
782.97	12.772	12772	0.12704
781.05	12.803	12803	0.12890
779.12	12.835	12835	0.13080
777.19	12.867	12867	0.13253
775.26	12.899	12899	0.13415
773.33	12.931	12931	0.13559
771.40	12.963	12963	0.13695
769.47	12.996	12996	0.13821
767.55	13.028	13028	0.13934
765.62	13.061	13061	0.14039
763.69	13.094	13094	0.14137
761.76	13.127	13128	0.14198
759.83	13.161	13161	0.14232
757.90	13.194	13194	0.14271
755.97	13.228	13228	0.14297
754.05	13.262	13262	0.14291
752.12	13.296	13296	0.14280
750.19	13.330	13330	0.14228
748.26	13.364	13364	0.14168
746.34	13.399	13399	0.14087
744.40	13.434	13434	0.13974
742.47	13.469	13469	0.13868
740.55	13.503	13504	0.13754
738.62	13.539	13539	0.13619
736.69	13.574	13574	0.13477
734.76	13.610	13610	0.13337
732.83	13.646	13646	0.13229
730.90	13.682	13682	0.13096
728.97	13.718	13718	0.12963
727.05	13.754	13754	0.12855
725.12	13.791	13791	0.12756
723.19	13.828	13828	0.12660
721.26	13.865	13865	0.12539
719.33	13.902	13902	0.12418
717.40	13.939	13939	0.12286
715.48	13.977	13977	0.12142
713.55	14.014	14015	0.12002
711.62	14.052	14053	0.11862
709.69	14.091	14091	0.11710
707.76	14.129	14129	0.11536
705.84	14.168	14168	0.11361
703.90	14.207	14207	0.11184
701.98	14.245	14245	0.10995
700.05	14.285	14285	0.10798
698.12	14.324	14324	0.10610
696.19	14.364	14364	0.10425
694.26	14.404	14404	0.10219
692.33	14.444	14444	0.10009
690.40	14.484	14484	0.098300
688.48	14.525	14525	0.096570
686.55	14.566	14566	0.094520
684.62	14.607	14607	0.092490
682.69	14.648	14648	0.090190
680.76	14.689	14689	0.087640
678.83	14.731	14731	0.085310
676.91	14.773	14773	0.083060
674.98	14.815	14815	0.080690
673.05	14.858	14858	0.078540
671.12	14.901	14900	0.076670
669.19	14.943	14943	0.074480
667.26	14.987	14987	0.072220
665.34	15.030	15030	0.070390
663.41	15.074	15074	0.068460
661.48	15.118	15118	0.066200
659.55	15.162	15162	0.063800
657.62	15.206	15206	0.061550
655.69	15.251	15251	0.059400
653.76	15.296	15296	0.057280
651.84	15.341	15341	0.055160
649.91	15.387	15387	0.052930
647.98	15.433	15433	0.050710
646.05	15.479	15479	0.048840
644.12	15.525	15525	0.047130
642.19	15.572	15572	0.045390
640.26	15.619	15619	0.043720
638.33	15.666	15666	0.042240
636.41	15.713	15713	0.040640
634.48	15.761	15761	0.039240
632.55	15.809	15809	0.037940
630.62	15.857	15857	0.037110
628.69	15.906	15906	0.036660
626.76	15.955	15955	0.036370
624.84	16.004	16004	0.036570
622.91	16.054	16054	0.036420
620.98	16.104	16104	0.036540
619.05	16.154	16154	0.037140
617.12	16.204	16204	0.037520
615.19	16.255	16255	0.037510
613.26	16.306	16306	0.037300
611.34	16.358	16358	0.037090
609.41	16.409	16409	0.037190
607.48	16.462	16462	0.037270
605.55	16.514	16514	0.037050
603.62	16.567	16567	0.036810
601.69	16.620	16620	0.036660
599.76	16.673	16673	0.036420
597.84	16.727	16727	0.036240
595.91	16.781	16781	0.036320
593.98	16.836	16836	0.036430
592.05	16.890	16891	0.036310
590.12	16.946	16946	0.035890
588.19	17.001	17001	0.035540
586.26	17.057	17057	0.035460
584.34	17.113	17113	0.035230
582.41	17.170	17170	0.034810
580.48	17.227	17227	0.034600
578.55	17.285	17285	0.034540
576.62	17.342	17342	0.034270
574.69	17.401	17401	0.034070
572.76	17.459	17459	0.034370
570.83	17.518	17518	0.034610
568.91	17.578	17578	0.034280
566.98	17.637	17637	0.033790
565.05	17.698	17697	0.032960
563.12	17.758	17758	0.032160
561.19	17.819	17819	0.031910
559.27	17.881	17881	0.032450
557.34	17.942	17943	0.032910
555.41	18.005	18005	0.033740
553.48	18.067	18068	0.034690
551.55	18.131	18131	0.036230
549.62	18.194	18194	0.038560
547.69	18.258	18258	0.040860
545.77	18.323	18323	0.043260
543.84	18.388	18388	0.045750
541.91	18.453	18453	0.047580
539.98	18.519	18519	0.049060
538.05	18.586	18586	0.050290
536.12	18.652	18652	0.051470
534.19	18.720	18720	0.052470
532.27	18.788	18788	0.052860
530.34	18.856	18856	0.053550
528.41	18.925	18925	0.054510
526.48	18.994	18994	0.054700
524.55	19.064	19064	0.054270
522.62	19.134	19134	0.053520
520.70	19.205	19205	0.052280
518.77	19.277	19277	0.051500
516.84	19.348	19348	0.051060
514.91	19.421	19421	0.050450
512.98	19.494	19494	0.049610
511.05	19.567	19568	0.048810
509.12	19.642	19642	0.047840
507.19	19.716	19716	0.046780
505.26	19.792	19792	0.045820
503.34	19.867	19867	0.044380
501.41	19.944	19944	0.043360
499.48	20.021	20021	0.042450
497.55	20.098	20098	0.041790
495.62	20.177	20177	0.042030
493.70	20.255	20255	0.042950
491.77	20.335	20335	0.043810
489.84	20.415	20415	0.044700
487.91	20.496	20496	0.045990
485.98	20.577	20577	0.046460
484.05	20.659	20659	0.046280
482.12	20.742	20742	0.046130
480.20	20.825	20825	0.045390
478.27	20.909	20909	0.043750
476.34	20.993	20994	0.042330
474.41	21.079	21079	0.041230
472.48	21.165	21165	0.039660
470.55	21.252	21252	0.037920
468.62	21.339	21339	0.035940
466.70	21.427	21427	0.033980
464.77	21.516	21516	0.032710
462.84	21.606	21606	0.031870
460.91	21.696	21696	0.030990
458.98	21.787	21787	0.030720
457.05	21.879	21879	0.030290
455.12	21.972	21972	0.029590
453.20	22.065	22065	0.028920
451.27	22.160	22160	0.028780
449.34	22.255	22255	0.028260
447.41	22.351	22351	0.027920
445.48	22.448	22447	0.027970
443.56	22.545	22545	0.027480
441.63	22.644	22644	0.026820
439.70	22.743	22743	0.026150
437.77	22.843	22843	0.025450
435.84	22.944	22944	0.025330
433.91	23.046	23046	0.025730
431.98	23.149	23149	0.026560
430.06	23.253	23253	0.027030
428.13	23.358	23358	0.028050
426.20	23.463	23463	0.029030
424.27	23.570	23570	0.030540
422.34	23.677	23677	0.032400
420.41	23.786	23786	0.033980
418.48	23.896	23896	0.035960
416.56	24.006	24006	0.037780
414.63	24.118	24118	0.039920
412.70	24.231	24231	0.042940
410.77	24.344	24344	0.045970
408.84	24.459	24459	0.048950
406.91	24.575	24575	0.051560
404.98	24.692	24692	0.053820
403.06	24.810	24810	0.055470
401.13	24.930	24930	0.056470
399.20	25.050	25050	0.057280
397.27	25.172	25172	0.057790
395.34	25.295	25294	0.058350
393.41	25.419	25419	0.059240
391.49	25.544	25544	0.059590
389.56	25.670	25670	0.059120
387.63	25.798	25798	0.058470
385.70	25.927	25927	0.056650
383.77	26.057	26057	0.053720
381.84	26.189	26189	0.051680
379.91	26.322	26322	0.049420
377.99	26.456	26456	0.047370
376.06	26.592	26592	0.045800
374.13	26.729	26729	0.044390
372.20	26.867	26867	0.043940
370.27	27.007	27007	0.043940
368.34	27.149	27149	0.044180
366.41	27.292	27292	0.045060
364.49	27.436	27436	0.046560
362.56	27.582	27582	0.048310
360.63	27.729	27729	0.050420
358.70	27.878	27878	0.053220
356.77	28.029	28029	0.056000
354.84	28.181	28181	0.057890
352.92	28.335	28335	0.059620
350.99	28.491	28491	0.061620
349.06	28.649	28649	0.062970
347.13	28.808	28808	0.062980
345.20	28.969	28969	0.063130
343.27	29.131	29131	0.063440
341.34	29.296	29296	0.063740
339.42	29.462	29462	0.064040
337.49	29.631	29631	0.063480
335.56	29.801	29801	0.063720
333.63	29.973	29973	0.063720
331.70	30.147	30148	0.062690
329.77	30.324	30324	0.061830
327.85	30.502	30502	0.061870
325.92	30.683	30683	0.061360
323.99	30.865	30865	0.060780
322.06	31.050	31050	0.059970
320.13	31.237	31237	0.059120
318.20	31.427	31426	0.058180
316.27	31.618	31618	0.058570
314.35	31.812	31812	0.058110
312.42	32.008	32008	0.057060
310.49	32.207	32207	0.056100
308.56	32.409	32409	0.055960
306.63	32.612	32612	0.055530
304.70	32.819	32819	0.055440
302.77	33.028	33028	0.054700
300.85	33.240	33240	0.053900
298.92	33.454	33454	0.053630
296.99	33.671	33671	0.052830
295.06	33.891	33891	0.052080
293.13	34.114	34114	0.052270
291.20	34.340	34340	0.051790
289.27	34.569	34569	0.050400
287.35	34.801	34801	0.048910
285.42	35.036	35036	0.049290
283.49	35.275	35275	0.049930
281.56	35.516	35516	0.050950
279.63	35.761	35761	0.051600
277.70	36.010	36010	0.051580
275.78	36.261	36261	0.052220
273.85	36.517	36517	0.052770
271.92	36.776	36776	0.052210
269.99	37.038	37038	0.051380
268.06	37.305	37305	0.051610
266.13	37.575	37575	0.052280
264.20	37.849	37849	0.052420
262.28	38.128	38128	0.052570
260.35	38.410	38410	0.052000
258.42	38.697	38697	0.052340
256.49	38.988	38988	0.051930
254.56	39.283	39283	0.051470
252.63	39.583	39583	0.051140
250.71	39.888	39888	0.051870
248.78	40.197	40197	0.053630
246.85	40.511	40511	0.055130
244.92	40.830	40830	0.054360
242.99	41.154	41154	0.053070
241.06	41.483	41483	0.052020
239.13	41.818	41818	0.052540
237.21	42.158	42157	0.052840
235.28	42.503	42503	0.052660
233.35	42.854	42854	0.053920
231.42	43.211	43211	0.055250
229.49	43.575	43575	0.055520
227.56	43.944	43944	0.057210
225.63	44.319	44319	0.056680
223.71	44.701	44701	0.056940
221.78	45.090	45090	0.059370
219.85	45.486	45486	0.061170
217.92	45.888	45888	0.060580
215.99	46.298	46298	0.059840
214.06	46.715	46715	0.059190
212.13	47.140	47140	0.058800
210.21	47.572	47572	0.059930
208.28	48.013	48013	0.062600
206.35	48.461	48461	0.063680
204.42	48.919	48919	0.061460
202.49	49.385	49385	0.061110
200.56	49.859	49859	0.061670
