Wavelength (µm)	split 92 <125 µm
0.30000	0.069058
0.30500	0.069252
0.31000	0.070823
0.31500	0.074713
0.32000	0.079134
0.32500	0.083104
0.33000	0.087733
0.33500	0.093737
0.34000	0.099702
0.34500	0.10602
0.35000	0.11262
0.35500	0.11999
0.36000	0.12746
0.36500	0.13484
0.37000	0.14202
0.37500	0.14882
0.38000	0.15526
0.38500	0.16231
0.39000	0.16740
0.39500	0.17275
0.40000	0.17808
0.40500	0.18402
0.41000	0.18815
0.41500	0.19260
0.42000	0.19620
0.42500	0.19883
0.43000	0.20147
0.43500	0.20463
0.44000	0.20740
0.44500	0.20989
0.45000	0.21251
0.45500	0.21550
0.46000	0.21956
0.46500	0.22242
0.47000	0.22462
0.47500	0.22744
0.48000	0.23045
0.48500	0.23384
0.49000	0.23665
0.49500	0.24028
0.50000	0.24331
0.50500	0.24208
0.51000	0.24805
0.51500	0.25356
0.52000	0.25736
0.52500	0.26032
0.53000	0.26370
0.53500	0.26539
0.54000	0.26648
0.54500	0.26723
0.55000	0.26880
0.55500	0.27200
0.56000	0.27459
0.56500	0.27686
0.57000	0.27842
0.57500	0.28009
0.58000	0.28187
0.58500	0.28317
0.59000	0.28455
0.59500	0.28585
0.60000	0.28671
0.60500	0.28751
0.61000	0.28841
0.61500	0.28977
0.62000	0.29038
0.62500	0.29083
0.63000	0.29215
0.63500	0.29289
0.64000	0.29352
0.64500	0.29424
0.65000	0.29452
0.65500	0.29538
0.66000	0.29569
0.66500	0.29583
0.67000	0.29659
0.67500	0.29690
0.68000	0.29761
0.68500	0.29806
0.69000	0.29788
0.69500	0.29759
0.70000	0.29838
0.70500	0.29750
0.71000	0.29788
0.71500	0.29735
0.72000	0.29709
0.72500	0.29618
0.73000	0.29554
0.73500	0.29407
0.74000	0.29242
0.74500	0.29076
0.75000	0.28657
0.75500	0.28366
0.76000	0.28065
0.76500	0.27656
0.77000	0.27268
0.77500	0.26761
0.78000	0.26243
0.78500	0.25678
0.79000	0.25110
0.79500	0.24420
0.80000	0.23788
0.80500	0.23056
0.81000	0.22326
0.81500	0.21585
0.82000	0.20814
0.82500	0.20087
0.83000	0.19392
0.83500	0.18703
0.84000	0.18006
0.84500	0.17373
0.85000	0.16770
0.85500	0.16391
0.86000	0.15887
0.86500	0.15428
0.87000	0.14957
0.87500	0.14535
0.88000	0.14179
0.88500	0.13806
0.89000	0.13533
0.89500	0.13268
0.90000	0.13042
0.90500	0.12858
0.91000	0.12708
0.91500	0.12591
0.92000	0.12538
0.92500	0.12470
0.93000	0.12481
0.93500	0.12500
0.94000	0.12576
0.94500	0.12692
0.95000	0.12851
0.95500	0.13018
0.96000	0.13250
0.96500	0.13514
0.97000	0.13818
0.97500	0.14191
0.98000	0.14589
0.98500	0.15020
0.99000	0.15497
0.99500	0.15966
1.0000	0.16519
1.0050	0.17079
1.0100	0.17644
1.0150	0.18246
1.0200	0.18841
1.0250	0.19440
1.0300	0.20066
1.0350	0.20673
1.0400	0.21243
1.0450	0.21859
1.0500	0.22408
1.0550	0.22896
1.0600	0.23442
1.0650	0.23897
1.0700	0.24336
1.0750	0.24763
1.0800	0.25103
1.0850	0.25483
1.0900	0.25780
1.0950	0.26063
1.1000	0.26291
1.1050	0.26506
1.1100	0.26754
1.1150	0.26935
1.1200	0.27067
1.1250	0.27200
1.1300	0.27366
1.1350	0.27480
1.1400	0.27627
1.1450	0.27694
1.1500	0.27819
1.1550	0.27911
1.1600	0.28049
1.1650	0.28106
1.1700	0.28233
1.1750	0.28279
1.1800	0.28380
1.1850	0.28449
1.1900	0.28538
1.1950	0.28607
1.2000	0.28727
1.2050	0.28815
1.2100	0.28927
1.2150	0.29019
1.2200	0.29022
1.2250	0.29126
1.2300	0.29253
1.2350	0.29340
1.2400	0.29406
1.2450	0.29512
1.2500	0.29578
1.2550	0.29647
1.2600	0.29705
1.2650	0.29821
1.2700	0.29876
1.2750	0.29954
1.2800	0.30046
1.2850	0.30047
1.2900	0.30203
1.2950	0.30238
1.3000	0.30399
1.3050	0.30402
1.3100	0.30494
1.3150	0.30562
1.3200	0.30637
1.3250	0.30724
1.3300	0.30786
1.3350	0.30867
1.3400	0.30890
1.3450	0.30916
1.3500	0.30970
1.3550	0.30952
1.3600	0.30982
1.3650	0.31021
1.3700	0.31075
1.3750	0.31126
1.3800	0.31145
1.3850	0.31134
1.3900	0.31167
1.3950	0.31180
1.4000	0.31171
1.4050	0.31213
1.4100	0.31245
1.4150	0.31204
1.4200	0.31172
1.4250	0.31185
1.4300	0.31107
1.4350	0.31119
1.4400	0.31121
1.4450	0.31055
1.4500	0.31031
1.4550	0.30927
1.4600	0.30900
1.4650	0.30805
1.4700	0.30721
1.4750	0.30691
1.4800	0.30612
1.4850	0.30477
1.4900	0.30358
1.4950	0.30291
1.5000	0.30182
1.5050	0.30037
1.5100	0.29947
1.5150	0.29798
1.5200	0.29663
1.5250	0.29488
1.5300	0.29390
1.5350	0.29226
1.5400	0.29075
1.5450	0.28934
1.5500	0.28764
1.5550	0.28601
1.5600	0.28443
1.5650	0.28256
1.5700	0.28108
1.5750	0.27919
1.5800	0.27757
1.5850	0.27560
1.5900	0.27375
1.5950	0.27193
1.6000	0.27036
1.6050	0.26839
1.6100	0.26643
1.6150	0.26469
1.6200	0.26277
1.6250	0.26086
1.6300	0.25902
1.6350	0.25662
1.6400	0.25498
1.6450	0.25319
1.6500	0.25168
1.6550	0.24983
1.6600	0.24688
1.6650	0.24559
1.6700	0.24340
1.6750	0.24157
1.6800	0.24003
1.6850	0.23819
1.6900	0.23655
1.6950	0.23464
1.7000	0.23459
1.7050	0.23213
1.7100	0.23008
1.7150	0.22839
1.7200	0.22629
1.7250	0.22493
1.7300	0.22350
1.7350	0.22222
1.7400	0.22028
1.7450	0.21824
1.7500	0.21690
1.7550	0.21419
1.7600	0.21283
1.7650	0.21145
1.7700	0.21014
1.7750	0.20874
1.7800	0.20718
1.7850	0.20609
1.7900	0.20486
1.7950	0.20363
1.8000	0.20288
1.8050	0.20155
1.8100	0.20046
1.8150	0.19950
1.8200	0.19853
1.8250	0.19742
1.8300	0.19642
1.8350	0.19540
1.8400	0.19446
1.8450	0.19381
1.8500	0.19302
1.8550	0.19239
1.8600	0.19157
1.8650	0.19121
1.8700	0.19081
1.8750	0.18931
1.8800	0.18885
1.8850	0.18858
1.8900	0.18808
1.8950	0.18778
1.9000	0.18741
1.9050	0.18693
1.9100	0.18653
1.9150	0.18632
1.9200	0.18613
1.9250	0.18614
1.9300	0.18580
1.9350	0.18609
1.9400	0.18630
1.9450	0.18627
1.9500	0.18618
1.9550	0.18617
1.9600	0.18638
1.9650	0.18667
1.9700	0.18681
1.9750	0.18703
1.9800	0.18750
1.9850	0.18779
1.9900	0.18818
1.9950	0.18856
2.0000	0.18908
2.0050	0.18942
2.0100	0.19015
2.0150	0.19061
2.0200	0.19164
2.0250	0.19232
2.0300	0.19308
2.0350	0.19364
2.0400	0.19432
2.0450	0.19497
2.0500	0.19568
2.0550	0.19657
2.0600	0.19746
2.0650	0.19854
2.0700	0.19953
2.0750	0.20046
2.0800	0.20166
2.0850	0.20276
2.0900	0.20410
2.0950	0.20505
2.1000	0.20619
2.1050	0.20750
2.1100	0.20888
2.1150	0.21028
2.1200	0.21160
2.1250	0.21302
2.1300	0.21452
2.1350	0.21588
2.1400	0.21720
2.1450	0.21858
2.1500	0.22000
2.1550	0.22166
2.1600	0.22332
2.1650	0.22488
2.1700	0.22649
2.1750	0.22840
2.1800	0.23018
2.1850	0.23211
2.1900	0.23379
2.1950	0.23543
2.2000	0.23732
2.2050	0.23936
2.2100	0.24124
2.2150	0.24321
2.2200	0.24524
2.2250	0.24708
2.2300	0.24898
2.2350	0.25073
2.2400	0.25298
2.2450	0.25463
2.2500	0.25657
2.2550	0.25856
2.2600	0.26051
2.2650	0.26254
2.2700	0.26452
2.2750	0.26668
2.2800	0.26890
2.2850	0.27098
2.2900	0.27281
2.2950	0.27435
2.3000	0.27666
2.3050	0.27848
2.3100	0.28052
2.3150	0.28229
2.3200	0.28430
2.3250	0.28625
2.3300	0.28815
2.3350	0.28999
2.3400	0.29174
2.3450	0.29345
2.3500	0.29492
2.3550	0.29685
2.3600	0.29882
2.3650	0.30076
2.3700	0.30265
2.3750	0.30436
2.3800	0.30610
2.3850	0.30793
2.3900	0.31004
2.3950	0.31250
2.4000	0.31449
2.4002	0.31465
2.4005	0.31451
2.4008	0.31475
2.4011	0.31505
2.4013	0.31498
2.4016	0.31505
2.4019	0.31536
2.4022	0.31557
2.4024	0.31551
2.4027	0.31549
2.4030	0.31549
2.4033	0.31548
2.4036	0.31553
2.4038	0.31578
2.4041	0.31604
2.4044	0.31596
2.4047	0.31593
2.4050	0.31628
2.4052	0.31680
2.4055	0.31633
2.4058	0.31632
2.4061	0.31649
2.4064	0.31655
2.4066	0.31687
2.4069	0.31685
2.4072	0.31696
2.4075	0.31693
2.4077	0.31706
2.4080	0.31728
2.4083	0.31726
2.4086	0.31708
2.4089	0.31754
2.4091	0.31785
2.4094	0.31790
2.4097	0.31759
2.4100	0.31745
2.4103	0.31778
2.4105	0.31789
2.4108	0.31827
2.4111	0.31827
2.4114	0.31820
2.4117	0.31826
2.4119	0.31828
2.4122	0.31818
2.4125	0.31812
2.4128	0.31849
2.4131	0.31866
2.4134	0.31900
2.4136	0.31906
2.4139	0.31897
2.4142	0.31914
2.4145	0.31929
2.4148	0.31928
2.4150	0.31926
2.4153	0.31953
2.4156	0.31953
2.4159	0.31972
2.4162	0.32013
2.4164	0.32005
2.4167	0.32004
2.4170	0.32032
2.4173	0.32011
2.4176	0.32012
2.4179	0.32038
2.4181	0.32043
2.4184	0.32055
2.4187	0.32058
2.4190	0.32062
2.4193	0.32070
2.4195	0.32093
2.4198	0.32104
2.4201	0.32091
2.4204	0.32119
2.4207	0.32161
2.4210	0.32123
2.4212	0.32147
2.4215	0.32176
2.4218	0.32183
2.4221	0.32182
2.4224	0.32193
2.4227	0.32205
2.4229	0.32208
2.4232	0.32238
2.4235	0.32242
2.4238	0.32220
2.4241	0.32225
2.4244	0.32231
2.4246	0.32255
2.4249	0.32265
2.4252	0.32231
2.4255	0.32258
2.4258	0.32287
2.4261	0.32284
2.4263	0.32265
2.4266	0.32297
2.4269	0.32327
2.4272	0.32363
2.4275	0.32356
2.4278	0.32337
2.4280	0.32340
2.4283	0.32330
2.4286	0.32328
2.4289	0.32361
2.4292	0.32387
2.4295	0.32402
2.4297	0.32415
2.4300	0.32451
2.4303	0.32455
2.4306	0.32445
2.4309	0.32449
2.4312	0.32449
2.4315	0.32450
2.4317	0.32439
2.4320	0.32454
2.4323	0.32484
2.4326	0.32465
2.4329	0.32467
2.4332	0.32526
2.4335	0.32562
2.4337	0.32550
2.4340	0.32580
2.4343	0.32580
2.4346	0.32558
2.4349	0.32556
2.4352	0.32588
2.4355	0.32620
2.4357	0.32624
2.4360	0.32590
2.4363	0.32579
2.4366	0.32590
2.4369	0.32619
2.4372	0.32618
2.4375	0.32621
2.4377	0.32652
2.4380	0.32657
2.4383	0.32680
2.4386	0.32673
2.4389	0.32651
2.4392	0.32675
2.4395	0.32726
2.4398	0.32757
2.4400	0.32731
2.4403	0.32756
2.4406	0.32742
2.4409	0.32726
2.4412	0.32751
2.4415	0.32783
2.4418	0.32787
2.4421	0.32748
2.4423	0.32761
2.4426	0.32790
2.4429	0.32786
2.4432	0.32776
2.4435	0.32784
2.4438	0.32788
2.4441	0.32806
2.4444	0.32827
2.4446	0.32852
2.4449	0.32853
2.4452	0.32855
2.4455	0.32886
2.4458	0.32894
2.4461	0.32890
2.4464	0.32890
2.4467	0.32900
2.4469	0.32908
2.4472	0.32900
2.4475	0.32921
2.4478	0.32949
2.4481	0.32952
2.4484	0.32950
2.4487	0.32962
2.4490	0.32984
2.4493	0.33009
2.4495	0.32994
2.4498	0.32988
2.4501	0.32992
2.4504	0.32981
2.4507	0.32996
2.4510	0.33031
2.4513	0.33046
2.4516	0.33073
2.4519	0.33061
2.4522	0.33030
2.4524	0.33047
2.4527	0.33091
2.4530	0.33117
2.4533	0.33090
2.4536	0.33119
2.4539	0.33137
2.4542	0.33120
2.4545	0.33124
2.4548	0.33133
2.4551	0.33113
2.4553	0.33122
2.4556	0.33137
2.4559	0.33137
2.4562	0.33161
2.4565	0.33160
2.4568	0.33170
2.4571	0.33191
2.4574	0.33209
2.4577	0.33201
2.4580	0.33203
2.4583	0.33219
2.4586	0.33237
2.4588	0.33272
2.4591	0.33272
2.4594	0.33253
2.4597	0.33253
2.4600	0.33247
2.4603	0.33243
2.4606	0.33266
2.4609	0.33299
2.4612	0.33301
2.4615	0.33303
2.4618	0.33283
2.4621	0.33304
2.4623	0.33335
2.4626	0.33338
2.4629	0.33352
2.4632	0.33364
2.4635	0.33384
2.4638	0.33387
2.4641	0.33378
2.4644	0.33372
2.4647	0.33365
2.4650	0.33387
2.4653	0.33422
2.4656	0.33408
2.4659	0.33411
2.4662	0.33442
2.4664	0.33451
2.4667	0.33435
2.4670	0.33455
2.4673	0.33479
2.4676	0.33491
2.4679	0.33492
2.4682	0.33482
2.4685	0.33472
2.4688	0.33501
2.4691	0.33530
2.4694	0.33507
2.4697	0.33510
2.4700	0.33536
2.4703	0.33574
2.4706	0.33580
2.4709	0.33555
2.4711	0.33535
2.4714	0.33550
2.4717	0.33552
2.4720	0.33589
2.4723	0.33595
2.4726	0.33596
2.4729	0.33607
2.4732	0.33632
2.4735	0.33620
2.4738	0.33602
2.4741	0.33651
2.4744	0.33673
2.4747	0.33667
2.4750	0.33661
2.4753	0.33670
2.4756	0.33669
2.4759	0.33699
2.4762	0.33716
2.4765	0.33716
2.4768	0.33714
2.4770	0.33738
2.4773	0.33747
2.4776	0.33769
2.4779	0.33763
2.4782	0.33742
2.4785	0.33754
2.4788	0.33747
2.4791	0.33744
2.4794	0.33765
2.4797	0.33795
2.4800	0.33825
2.4803	0.33829
2.4806	0.33831
2.4809	0.33819
2.4812	0.33833
2.4815	0.33846
2.4818	0.33824
2.4821	0.33850
2.4824	0.33872
2.4827	0.33902
2.4830	0.33869
2.4833	0.33859
2.4836	0.33866
2.4839	0.33892
2.4842	0.33905
2.4845	0.33904
2.4848	0.33912
2.4851	0.33959
2.4854	0.33971
2.4857	0.33944
2.4860	0.33937
2.4863	0.33937
2.4866	0.33939
2.4869	0.33982
2.4871	0.33970
2.4874	0.33948
2.4877	0.33986
2.4880	0.34040
2.4883	0.34034
2.4886	0.34020
2.4889	0.34023
2.4892	0.34045
2.4895	0.34034
2.4898	0.34031
2.4901	0.34055
2.4904	0.34067
2.4907	0.34059
2.4910	0.34084
2.4913	0.34102
2.4916	0.34085
2.4919	0.34088
2.4922	0.34103
2.4925	0.34128
2.4928	0.34111
2.4931	0.34092
2.4934	0.34101
2.4937	0.34118
2.4940	0.34142
2.4943	0.34190
2.4946	0.34184
2.4949	0.34153
2.4952	0.34169
2.4955	0.34198
2.4958	0.34208
2.4961	0.34235
2.4964	0.34265
2.4967	0.34251
2.4970	0.34208
2.4973	0.34239
2.4976	0.34257
2.4979	0.34209
2.4982	0.34228
2.4985	0.34260
2.4988	0.34264
2.4991	0.34277
2.4994	0.34276
2.4997	0.34294
2.5000	0.34312
2.5003	0.34327
2.5006	0.34326
2.5009	0.34322
2.5012	0.34299
2.5015	0.34289
2.5019	0.34314
2.5022	0.34353
2.5025	0.34334
2.5028	0.34333
2.5031	0.34343
2.5034	0.34361
2.5037	0.34401
2.5040	0.34423
2.5043	0.34428
2.5046	0.34399
2.5049	0.34402
2.5052	0.34423
2.5055	0.34403
2.5058	0.34407
2.5061	0.34407
2.5064	0.34402
2.5067	0.34440
2.5070	0.34483
2.5073	0.34488
2.5076	0.34479
2.5079	0.34468
2.5082	0.34451
2.5085	0.34457
2.5088	0.34472
2.5091	0.34469
2.5094	0.34482
2.5097	0.34492
2.5100	0.34523
2.5103	0.34550
2.5106	0.34558
2.5109	0.34539
2.5112	0.34525
2.5115	0.34528
2.5118	0.34559
2.5122	0.34559
2.5125	0.34571
2.5128	0.34574
2.5131	0.34560
2.5134	0.34568
2.5137	0.34607
2.5140	0.34632
2.5143	0.34632
2.5146	0.34632
2.5149	0.34649
2.5152	0.34644
2.5155	0.34633
2.5158	0.34649
2.5161	0.34658
2.5164	0.34676
2.5167	0.34671
2.5170	0.34649
2.5173	0.34668
2.5176	0.34698
2.5179	0.34696
2.5183	0.34675
2.5186	0.34666
2.5189	0.34694
2.5192	0.34729
2.5195	0.34738
2.5198	0.34753
2.5201	0.34769
2.5204	0.34739
2.5207	0.34721
2.5210	0.34743
2.5213	0.34744
2.5216	0.34750
2.5219	0.34777
2.5222	0.34783
2.5225	0.34800
2.5228	0.34817
2.5232	0.34807
2.5235	0.34816
2.5238	0.34822
2.5241	0.34833
2.5244	0.34841
2.5247	0.34816
2.5250	0.34830
2.5253	0.34824
2.5256	0.34831
2.5259	0.34834
2.5262	0.34841
2.5265	0.34862
2.5268	0.34881
2.5272	0.34892
2.5275	0.34912
2.5278	0.34907
2.5281	0.34882
2.5284	0.34890
2.5287	0.34916
2.5290	0.34931
2.5293	0.34911
2.5296	0.34922
2.5299	0.34941
2.5302	0.34931
2.5305	0.34921
2.5309	0.34952
2.5312	0.34968
2.5315	0.34967
2.5318	0.34981
2.5321	0.35000
2.5324	0.35006
2.5327	0.35018
2.5330	0.34999
2.5333	0.34987
2.5336	0.35027
2.5339	0.35026
2.5343	0.35008
2.5346	0.35024
2.5349	0.35060
2.5352	0.35075
2.5355	0.35057
2.5358	0.35064
2.5361	0.35088
2.5364	0.35077
2.5367	0.35086
2.5370	0.35085
2.5374	0.35061
2.5377	0.35088
2.5380	0.35086
2.5383	0.35073
2.5386	0.35093
2.5389	0.35123
2.5392	0.35111
2.5395	0.35107
2.5398	0.35115
2.5402	0.35129
2.5405	0.35134
2.5408	0.35141
2.5411	0.35158
2.5414	0.35159
2.5417	0.35183
2.5420	0.35193
2.5423	0.35196
2.5426	0.35200
2.5430	0.35206
2.5433	0.35206
2.5436	0.35185
2.5439	0.35181
2.5442	0.35207
2.5445	0.35206
2.5448	0.35228
2.5451	0.35237
2.5455	0.35222
2.5458	0.35217
2.5461	0.35235
2.5464	0.35248
2.5467	0.35243
2.5470	0.35239
2.5473	0.35245
2.5476	0.35243
2.5480	0.35252
2.5483	0.35305
2.5486	0.35315
2.5489	0.35277
2.5492	0.35263
2.5495	0.35279
2.5498	0.35312
2.5501	0.35322
2.5505	0.35325
2.5508	0.35317
2.5511	0.35308
2.5514	0.35297
2.5517	0.35299
2.5520	0.35333
2.5523	0.35361
2.5527	0.35373
2.5530	0.35386
2.5533	0.35378
2.5536	0.35362
2.5539	0.35349
2.5542	0.35359
2.5545	0.35375
2.5549	0.35370
2.5552	0.35362
2.5555	0.35398
2.5558	0.35424
2.5561	0.35412
2.5564	0.35408
2.5567	0.35413
2.5571	0.35404
2.5574	0.35410
2.5577	0.35408
2.5580	0.35413
2.5583	0.35410
2.5586	0.35409
2.5590	0.35427
2.5593	0.35446
2.5596	0.35462
2.5599	0.35453
2.5602	0.35465
2.5605	0.35479
2.5609	0.35475
2.5612	0.35502
2.5615	0.35505
2.5618	0.35480
2.5621	0.35512
2.5624	0.35499
2.5628	0.35506
2.5631	0.35526
2.5634	0.35529
2.5637	0.35529
2.5640	0.35523
2.5643	0.35560
2.5647	0.35552
2.5650	0.35548
2.5653	0.35534
2.5656	0.35514
2.5659	0.35543
2.5662	0.35552
2.5666	0.35558
2.5669	0.35575
2.5672	0.35567
2.5675	0.35566
2.5678	0.35585
2.5681	0.35581
2.5685	0.35574
2.5688	0.35567
2.5691	0.35584
2.5694	0.35613
2.5697	0.35621
2.5701	0.35598
2.5704	0.35626
2.5707	0.35609
2.5710	0.35614
2.5713	0.35630
2.5716	0.35620
2.5720	0.35602
2.5723	0.35575
2.5726	0.35591
2.5729	0.35637
2.5732	0.35686
2.5736	0.35705
2.5739	0.35713
2.5742	0.35666
2.5745	0.35620
2.5748	0.35660
2.5752	0.35690
2.5755	0.35691
2.5758	0.35698
2.5761	0.35700
2.5764	0.35706
2.5768	0.35720
2.5771	0.35731
2.5774	0.35683
2.5777	0.35682
2.5780	0.35704
2.5784	0.35717
2.5787	0.35729
2.5790	0.35717
2.5793	0.35728
2.5796	0.35727
2.5800	0.35741
2.5803	0.35761
2.5806	0.35752
2.5809	0.35775
2.5812	0.35793
2.5816	0.35783
2.5819	0.35775
2.5822	0.35760
2.5825	0.35759
2.5829	0.35773
2.5832	0.35814
2.5835	0.35820
2.5838	0.35836
2.5841	0.35828
2.5845	0.35854
2.5848	0.35802
2.5851	0.35796
2.5854	0.35829
2.5858	0.35839
2.5861	0.35833
2.5864	0.35809
2.5867	0.35822
2.5870	0.35835
2.5874	0.35824
2.5877	0.35873
2.5880	0.35886
2.5883	0.35834
2.5887	0.35837
2.5890	0.35877
2.5893	0.35895
2.5896	0.35873
2.5900	0.35882
2.5903	0.35872
2.5906	0.35866
2.5909	0.35881
2.5912	0.35897
2.5916	0.35905
2.5919	0.35905
2.5922	0.35913
2.5925	0.35904
2.5929	0.35886
2.5932	0.35869
2.5935	0.35827
2.5938	0.35878
2.5942	0.35977
2.5945	0.35989
2.5948	0.35929
2.5951	0.36002
2.5955	0.35990
2.5958	0.35942
2.5961	0.35947
2.5964	0.36011
2.5968	0.36023
2.5971	0.35938
2.5974	0.35933
2.5977	0.35961
2.5981	0.35980
2.5984	0.35966
2.5987	0.35959
2.5990	0.35965
2.5994	0.35989
2.5997	0.35953
2.6000	0.35953
2.6003	0.35968
2.6007	0.35957
2.6010	0.35961
2.6013	0.35993
2.6016	0.35995
2.6020	0.36003
2.6023	0.36018
2.6026	0.36015
2.6030	0.36026
2.6033	0.36025
2.6036	0.35998
2.6039	0.36005
2.6043	0.36005
2.6046	0.35997
2.6049	0.36016
2.6052	0.36040
2.6056	0.36061
2.6059	0.36038
2.6062	0.36098
2.6066	0.36062
2.6069	0.36044
2.6072	0.36072
2.6075	0.36064
2.6079	0.36058
2.6082	0.36076
2.6085	0.36055
2.6088	0.36045
2.6092	0.36079
2.6095	0.36088
2.6098	0.36099
2.6102	0.36095
2.6105	0.36095
2.6108	0.36088
2.6111	0.36086
2.6115	0.36096
2.6118	0.36092
2.6121	0.36089
2.6125	0.36103
2.6128	0.36094
2.6131	0.36095
2.6134	0.36119
2.6138	0.36123
2.6141	0.36095
2.6144	0.36108
2.6148	0.36133
2.6151	0.36125
2.6154	0.36117
2.6158	0.36118
2.6161	0.36113
2.6164	0.36135
2.6167	0.36149
2.6171	0.36182
2.6174	0.36177
2.6177	0.36157
2.6181	0.36157
2.6184	0.36145
2.6187	0.36133
2.6191	0.36136
2.6194	0.36161
2.6197	0.36166
2.6201	0.36194
2.6204	0.36244
2.6207	0.36228
2.6210	0.36223
2.6214	0.36211
2.6217	0.36165
2.6220	0.36157
2.6224	0.36184
2.6227	0.36213
2.6230	0.36228
2.6234	0.36209
2.6237	0.36186
2.6240	0.36209
2.6244	0.36210
2.6247	0.36185
2.6250	0.36177
2.6254	0.36197
2.6257	0.36199
2.6260	0.36194
2.6264	0.36201
2.6267	0.36236
2.6270	0.36262
2.6274	0.36273
2.6277	0.36236
2.6280	0.36193
2.6284	0.36211
2.6287	0.36238
2.6290	0.36240
2.6294	0.36202
2.6297	0.36207
2.6300	0.36255
2.6304	0.36273
2.6307	0.36263
2.6310	0.36302
2.6314	0.36318
2.6317	0.36249
2.6320	0.36264
2.6324	0.36293
2.6327	0.36284
2.6330	0.36259
2.6334	0.36252
2.6337	0.36258
2.6340	0.36242
2.6344	0.36247
2.6347	0.36277
2.6350	0.36266
2.6354	0.36259
2.6357	0.36263
2.6360	0.36273
2.6364	0.36279
2.6367	0.36282
2.6370	0.36280
2.6374	0.36264
2.6377	0.36241
2.6380	0.36239
2.6384	0.36260
2.6387	0.36258
2.6391	0.36265
2.6394	0.36284
2.6397	0.36277
2.6401	0.36281
2.6404	0.36311
2.6407	0.36310
2.6411	0.36299
2.6414	0.36277
2.6417	0.36256
2.6421	0.36282
2.6424	0.36311
2.6428	0.36311
2.6431	0.36319
2.6434	0.36309
2.6438	0.36311
2.6441	0.36298
2.6444	0.36287
2.6448	0.36310
2.6451	0.36316
2.6455	0.36318
2.6458	0.36332
2.6461	0.36341
2.6465	0.36308
2.6468	0.36272
2.6471	0.36284
2.6475	0.36322
2.6478	0.36299
2.6482	0.36291
2.6485	0.36314
2.6488	0.36302
2.6492	0.36298
2.6495	0.36323
2.6498	0.36339
2.6502	0.36331
2.6505	0.36313
2.6509	0.36307
2.6512	0.36321
2.6515	0.36327
2.6519	0.36344
2.6522	0.36334
2.6526	0.36334
2.6529	0.36329
2.6532	0.36313
2.6536	0.36309
2.6539	0.36310
2.6543	0.36309
2.6546	0.36330
2.6549	0.36321
2.6553	0.36309
2.6556	0.36319
2.6560	0.36328
2.6563	0.36328
2.6566	0.36322
2.6570	0.36317
2.6573	0.36299
2.6577	0.36306
2.6580	0.36330
2.6583	0.36334
2.6587	0.36320
2.6590	0.36321
2.6594	0.36319
2.6597	0.36327
2.6600	0.36337
2.6604	0.36316
2.6607	0.36308
2.6611	0.36307
2.6614	0.36314
2.6617	0.36328
2.6621	0.36320
2.6624	0.36310
2.6628	0.36296
2.6631	0.36289
2.6635	0.36297
2.6638	0.36295
2.6641	0.36288
2.6645	0.36292
2.6648	0.36343
2.6652	0.36371
2.6655	0.36333
2.6659	0.36291
2.6662	0.36229
2.6665	0.36263
2.6669	0.36347
2.6672	0.36345
2.6676	0.36327
2.6679	0.36330
2.6683	0.36257
2.6686	0.36236
2.6689	0.36221
2.6693	0.36208
2.6696	0.36201
2.6700	0.36218
2.6703	0.36269
2.6707	0.36312
2.6710	0.36288
2.6713	0.36215
2.6717	0.36157
2.6720	0.36167
2.6724	0.36154
2.6727	0.36144
2.6731	0.36130
2.6734	0.36100
2.6738	0.36081
2.6741	0.36080
2.6744	0.36084
2.6748	0.36076
2.6751	0.36041
2.6755	0.36032
2.6758	0.36066
2.6762	0.36078
2.6765	0.36057
2.6769	0.36072
2.6772	0.36041
2.6776	0.36008
2.6779	0.36004
2.6782	0.35996
2.6786	0.35953
2.6789	0.35957
2.6793	0.35977
2.6796	0.35960
2.6800	0.35945
2.6803	0.35925
2.6807	0.35879
2.6810	0.35878
2.6814	0.35891
2.6817	0.35871
2.6821	0.35814
2.6824	0.35796
2.6827	0.35799
2.6831	0.35804
2.6834	0.35771
2.6838	0.35752
2.6841	0.35749
2.6845	0.35708
2.6848	0.35668
2.6852	0.35655
2.6855	0.35647
2.6859	0.35622
2.6862	0.35601
2.6866	0.35608
2.6869	0.35594
2.6873	0.35580
2.6876	0.35539
2.6880	0.35499
2.6883	0.35484
2.6887	0.35463
2.6890	0.35426
2.6894	0.35409
2.6897	0.35398
2.6901	0.35366
2.6904	0.35343
2.6908	0.35334
2.6911	0.35315
2.6915	0.35288
2.6918	0.35255
2.6922	0.35234
2.6925	0.35196
2.6929	0.35171
2.6932	0.35159
2.6936	0.35164
2.6939	0.35149
2.6943	0.35111
2.6946	0.35061
2.6950	0.35018
2.6953	0.35012
2.6957	0.35002
2.6960	0.34982
2.6964	0.34932
2.6967	0.34870
2.6971	0.34820
2.6974	0.34814
2.6978	0.34812
2.6981	0.34787
2.6985	0.34761
2.6988	0.34709
2.6992	0.34670
2.6995	0.34636
2.6999	0.34633
2.7002	0.34614
2.7006	0.34531
2.7009	0.34499
2.7013	0.34517
2.7016	0.34475
2.7020	0.34443
2.7023	0.34416
2.7027	0.34361
2.7030	0.34327
2.7034	0.34295
2.7037	0.34244
2.7041	0.34173
2.7044	0.34138
2.7048	0.34120
2.7051	0.34090
2.7055	0.34036
2.7058	0.33986
2.7062	0.33935
2.7066	0.33887
2.7069	0.33844
2.7073	0.33794
2.7076	0.33757
2.7080	0.33707
2.7083	0.33659
2.7087	0.33611
2.7090	0.33592
2.7094	0.33536
2.7097	0.33433
2.7101	0.33368
2.7104	0.33354
2.7108	0.33350
2.7112	0.33339
2.7115	0.33209
2.7119	0.33097
2.7122	0.33020
2.7126	0.32976
2.7129	0.32935
2.7133	0.32862
2.7136	0.32797
2.7140	0.32710
2.7143	0.32641
2.7147	0.32567
2.7151	0.32473
2.7154	0.32408
2.7158	0.32342
2.7161	0.32266
2.7165	0.32183
2.7168	0.32098
2.7172	0.32017
2.7175	0.31949
2.7179	0.31860
2.7183	0.31749
2.7186	0.31630
2.7190	0.31508
2.7193	0.31429
2.7197	0.31365
2.7200	0.31301
2.7204	0.31257
2.7208	0.31212
2.7211	0.31162
2.7215	0.31061
2.7218	0.31021
2.7222	0.30966
2.7225	0.30924
2.7229	0.30895
2.7233	0.30880
2.7236	0.30879
2.7240	0.30885
2.7243	0.30878
2.7247	0.30844
2.7250	0.30800
2.7254	0.30766
2.7258	0.30799
2.7261	0.30830
2.7265	0.30798
2.7268	0.30727
2.7272	0.30698
2.7276	0.30694
2.7279	0.30696
2.7283	0.30668
2.7286	0.30625
2.7290	0.30595
2.7294	0.30570
2.7297	0.30548
2.7301	0.30509
2.7304	0.30472
2.7308	0.30418
2.7311	0.30383
2.7315	0.30370
2.7319	0.30325
2.7322	0.30268
2.7326	0.30222
2.7329	0.30209
2.7333	0.30204
2.7337	0.30162
2.7340	0.30141
2.7344	0.30134
2.7347	0.30131
2.7351	0.30131
2.7355	0.30115
2.7358	0.30050
2.7362	0.29994
2.7366	0.29994
2.7369	0.29983
2.7373	0.29948
2.7376	0.29905
2.7380	0.29887
2.7384	0.29884
2.7387	0.29856
2.7391	0.29821
2.7394	0.29792
2.7398	0.29742
2.7402	0.29720
2.7405	0.29691
2.7409	0.29659
2.7413	0.29609
2.7416	0.29574
2.7420	0.29550
2.7423	0.29505
2.7427	0.29466
2.7431	0.29446
2.7434	0.29400
2.7438	0.29354
2.7442	0.29323
2.7445	0.29292
2.7449	0.29275
2.7452	0.29245
2.7456	0.29193
2.7460	0.29141
2.7463	0.29104
2.7467	0.29076
2.7471	0.29067
2.7474	0.29040
2.7478	0.28996
2.7482	0.28958
2.7485	0.28930
2.7489	0.28899
2.7492	0.28865
2.7496	0.28829
2.7500	0.28801
2.7503	0.28757
2.7507	0.28718
2.7511	0.28700
2.7514	0.28674
2.7518	0.28649
2.7522	0.28623
2.7525	0.28595
2.7529	0.28566
2.7533	0.28527
2.7536	0.28504
2.7540	0.28471
2.7544	0.28442
2.7547	0.28447
2.7551	0.28471
2.7555	0.28442
2.7558	0.28400
2.7562	0.28352
2.7566	0.28296
2.7569	0.28266
2.7573	0.28243
2.7577	0.28230
2.7580	0.28200
2.7584	0.28169
2.7588	0.28135
2.7591	0.28091
2.7595	0.28044
2.7599	0.28028
2.7602	0.28017
2.7606	0.28006
2.7610	0.27967
2.7613	0.27941
2.7617	0.27927
2.7621	0.27899
2.7624	0.27901
2.7628	0.27904
2.7632	0.27857
2.7635	0.27815
2.7639	0.27788
2.7643	0.27774
2.7646	0.27769
2.7650	0.27728
2.7654	0.27692
2.7657	0.27687
2.7661	0.27658
2.7665	0.27622
2.7669	0.27605
2.7672	0.27585
2.7676	0.27569
2.7680	0.27558
2.7683	0.27539
2.7687	0.27517
2.7691	0.27482
2.7694	0.27446
2.7698	0.27443
2.7702	0.27453
2.7706	0.27447
2.7709	0.27413
2.7713	0.27375
2.7717	0.27342
2.7720	0.27326
2.7724	0.27322
2.7728	0.27305
2.7731	0.27284
2.7735	0.27269
2.7739	0.27257
2.7743	0.27231
2.7746	0.27195
2.7750	0.27174
2.7754	0.27152
2.7757	0.27139
2.7761	0.27115
2.7765	0.27100
2.7769	0.27110
2.7772	0.27120
2.7776	0.27081
2.7780	0.27040
2.7783	0.27022
2.7787	0.27019
2.7791	0.26993
2.7795	0.26971
2.7798	0.26962
2.7802	0.26923
2.7806	0.26907
2.7810	0.26929
2.7813	0.26918
2.7817	0.26886
2.7821	0.26868
2.7824	0.26857
2.7828	0.26830
2.7832	0.26822
2.7836	0.26812
2.7839	0.26787
2.7843	0.26763
2.7847	0.26765
2.7851	0.26749
2.7854	0.26730
2.7858	0.26714
2.7862	0.26718
2.7866	0.26703
2.7869	0.26695
2.7873	0.26683
2.7877	0.26641
2.7881	0.26637
2.7884	0.26654
2.7888	0.26637
2.7892	0.26595
2.7896	0.26551
2.7899	0.26530
2.7903	0.26530
2.7907	0.26530
2.7911	0.26533
2.7914	0.26534
2.7918	0.26493
2.7922	0.26458
2.7926	0.26449
2.7929	0.26462
2.7933	0.26456
2.7937	0.26426
2.7941	0.26414
2.7944	0.26415
2.7948	0.26416
2.7952	0.26407
2.7956	0.26397
2.7959	0.26381
2.7963	0.26370
2.7967	0.26348
2.7971	0.26337
2.7975	0.26325
2.7978	0.26312
2.7982	0.26308
2.7986	0.26303
2.7990	0.26292
2.7993	0.26281
2.7997	0.26273
2.8001	0.26266
2.8005	0.26257
2.8009	0.26251
2.8012	0.26234
2.8016	0.26209
2.8020	0.26178
2.8024	0.26182
2.8027	0.26193
2.8031	0.26197
2.8035	0.26194
2.8039	0.26166
2.8043	0.26156
2.8046	0.26146
2.8050	0.26128
2.8054	0.26129
2.8058	0.26139
2.8062	0.26133
2.8065	0.26110
2.8069	0.26099
2.8073	0.26087
2.8077	0.26079
2.8081	0.26059
2.8084	0.26039
2.8088	0.26050
2.8092	0.26060
2.8096	0.26052
2.8100	0.26036
2.8103	0.26016
2.8107	0.26006
2.8111	0.26016
2.8115	0.26007
2.8119	0.25986
2.8122	0.25987
2.8126	0.25975
2.8130	0.25952
2.8134	0.25955
2.8138	0.25969
2.8142	0.25960
2.8145	0.25943
2.8149	0.25951
2.8153	0.25956
2.8157	0.25930
2.8161	0.25911
2.8165	0.25907
2.8168	0.25903
2.8172	0.25895
2.8176	0.25897
2.8180	0.25896
2.8184	0.25874
2.8187	0.25866
2.8191	0.25862
2.8195	0.25853
2.8199	0.25848
2.8203	0.25858
2.8207	0.25864
2.8210	0.25825
2.8214	0.25803
2.8218	0.25824
2.8222	0.25834
2.8226	0.25829
2.8230	0.25812
2.8234	0.25781
2.8237	0.25787
2.8241	0.25804
2.8245	0.25787
2.8249	0.25765
2.8253	0.25761
2.8257	0.25766
2.8260	0.25780
2.8264	0.25779
2.8268	0.25780
2.8272	0.25765
2.8276	0.25756
2.8280	0.25746
2.8284	0.25726
2.8287	0.25735
2.8291	0.25738
2.8295	0.25732
2.8299	0.25729
2.8303	0.25710
2.8307	0.25717
2.8311	0.25723
2.8314	0.25704
2.8318	0.25701
2.8322	0.25706
2.8326	0.25704
2.8330	0.25699
2.8334	0.25688
2.8338	0.25678
2.8342	0.25668
2.8345	0.25674
2.8349	0.25675
2.8353	0.25660
2.8357	0.25659
2.8361	0.25665
2.8365	0.25663
2.8369	0.25646
2.8373	0.25636
2.8376	0.25643
2.8380	0.25650
2.8384	0.25630
2.8388	0.25625
2.8392	0.25611
2.8396	0.25617
2.8400	0.25633
2.8404	0.25641
2.8408	0.25611
2.8411	0.25609
2.8415	0.25604
2.8419	0.25597
2.8423	0.25594
2.8427	0.25579
2.8431	0.25588
2.8435	0.25599
2.8439	0.25585
2.8443	0.25574
2.8446	0.25580
2.8450	0.25583
2.8454	0.25567
2.8458	0.25577
2.8462	0.25581
2.8466	0.25569
2.8470	0.25568
2.8474	0.25551
2.8478	0.25556
2.8482	0.25545
2.8486	0.25532
2.8489	0.25531
2.8493	0.25537
2.8497	0.25530
2.8501	0.25529
2.8505	0.25529
2.8509	0.25528
2.8513	0.25526
2.8517	0.25522
2.8521	0.25529
2.8525	0.25521
2.8529	0.25506
2.8533	0.25513
2.8537	0.25519
2.8540	0.25508
2.8544	0.25507
2.8548	0.25518
2.8552	0.25505
2.8556	0.25481
2.8560	0.25473
2.8564	0.25467
2.8568	0.25478
2.8572	0.25498
2.8576	0.25497
2.8580	0.25488
2.8584	0.25483
2.8588	0.25474
2.8592	0.25474
2.8596	0.25453
2.8599	0.25438
2.8603	0.25453
2.8607	0.25464
2.8611	0.25459
2.8615	0.25459
2.8619	0.25471
2.8623	0.25460
2.8627	0.25443
2.8631	0.25440
2.8635	0.25437
2.8639	0.25426
2.8643	0.25440
2.8647	0.25453
2.8651	0.25434
2.8655	0.25427
2.8659	0.25422
2.8663	0.25421
2.8667	0.25424
2.8671	0.25437
2.8675	0.25436
2.8679	0.25414
2.8683	0.25404
2.8686	0.25425
2.8690	0.25446
2.8694	0.25433
2.8698	0.25414
2.8702	0.25410
2.8706	0.25410
2.8710	0.25402
2.8714	0.25389
2.8718	0.25404
2.8722	0.25419
2.8726	0.25405
2.8730	0.25396
2.8734	0.25419
2.8738	0.25418
2.8742	0.25369
2.8746	0.25371
2.8750	0.25379
2.8754	0.25366
2.8758	0.25372
2.8762	0.25384
2.8766	0.25370
2.8770	0.25364
2.8774	0.25379
2.8778	0.25378
2.8782	0.25366
2.8786	0.25356
2.8790	0.25363
2.8794	0.25365
2.8798	0.25362
2.8802	0.25360
2.8806	0.25363
2.8810	0.25363
2.8814	0.25366
2.8818	0.25369
2.8822	0.25384
2.8826	0.25373
2.8830	0.25339
2.8834	0.25321
2.8838	0.25328
2.8842	0.25354
2.8846	0.25357
2.8850	0.25322
2.8854	0.25322
2.8858	0.25330
2.8862	0.25336
2.8866	0.25344
2.8870	0.25352
2.8874	0.25341
2.8878	0.25329
2.8882	0.25317
2.8886	0.25318
2.8890	0.25326
2.8894	0.25333
2.8898	0.25331
2.8902	0.25335
2.8906	0.25328
2.8910	0.25317
2.8914	0.25302
2.8918	0.25312
2.8923	0.25324
2.8927	0.25315
2.8931	0.25307
2.8935	0.25304
2.8939	0.25301
2.8943	0.25306
2.8947	0.25302
2.8951	0.25296
2.8955	0.25303
2.8959	0.25297
2.8963	0.25300
2.8967	0.25299
2.8971	0.25311
2.8975	0.25316
2.8979	0.25299
2.8983	0.25285
2.8987	0.25289
2.8991	0.25308
2.8995	0.25309
2.8999	0.25299
2.9003	0.25305
2.9007	0.25312
2.9012	0.25308
2.9016	0.25290
2.9020	0.25282
2.9024	0.25266
2.9028	0.25262
2.9032	0.25283
2.9036	0.25280
2.9040	0.25282
2.9044	0.25281
2.9048	0.25296
2.9052	0.25287
2.9056	0.25276
2.9060	0.25271
2.9064	0.25280
2.9068	0.25283
2.9073	0.25283
2.9077	0.25283
2.9081	0.25273
2.9085	0.25270
2.9089	0.25281
2.9093	0.25275
2.9097	0.25253
2.9101	0.25261
2.9105	0.25268
2.9109	0.25279
2.9113	0.25275
2.9117	0.25243
2.9122	0.25242
2.9126	0.25264
2.9130	0.25273
2.9134	0.25266
2.9138	0.25254
2.9142	0.25263
2.9146	0.25271
2.9150	0.25268
2.9154	0.25255
2.9158	0.25246
2.9162	0.25280
2.9167	0.25280
2.9171	0.25265
2.9175	0.25252
2.9179	0.25244
2.9183	0.25248
2.9187	0.25257
2.9191	0.25280
2.9195	0.25283
2.9199	0.25271
2.9204	0.25270
2.9208	0.25259
2.9212	0.25254
2.9216	0.25264
2.9220	0.25262
2.9224	0.25247
2.9228	0.25259
2.9232	0.25272
2.9236	0.25267
2.9241	0.25251
2.9245	0.25264
2.9249	0.25281
2.9253	0.25277
2.9257	0.25253
2.9261	0.25237
2.9265	0.25246
2.9269	0.25253
2.9274	0.25249
2.9278	0.25256
2.9282	0.25269
2.9286	0.25269
2.9290	0.25281
2.9294	0.25279
2.9298	0.25268
2.9303	0.25251
2.9307	0.25242
2.9311	0.25247
2.9315	0.25250
2.9319	0.25270
2.9323	0.25274
2.9327	0.25262
2.9332	0.25261
2.9336	0.25256
2.9340	0.25249
2.9344	0.25260
2.9348	0.25267
2.9352	0.25263
2.9356	0.25275
2.9361	0.25281
2.9365	0.25271
2.9369	0.25262
2.9373	0.25261
2.9377	0.25270
2.9381	0.25283
2.9386	0.25269
2.9390	0.25268
2.9394	0.25273
2.9398	0.25267
2.9402	0.25249
2.9406	0.25238
2.9411	0.25250
2.9415	0.25250
2.9419	0.25231
2.9423	0.25242
2.9427	0.25258
2.9431	0.25253
2.9436	0.25251
2.9440	0.25258
2.9444	0.25273
2.9448	0.25268
2.9452	0.25265
2.9457	0.25278
2.9461	0.25286
2.9465	0.25278
2.9469	0.25280
2.9473	0.25278
2.9477	0.25286
2.9482	0.25280
2.9486	0.25261
2.9490	0.25244
2.9494	0.25251
2.9498	0.25270
2.9503	0.25299
2.9507	0.25307
2.9511	0.25286
2.9515	0.25286
2.9519	0.25309
2.9524	0.25316
2.9528	0.25305
2.9532	0.25299
2.9536	0.25305
2.9540	0.25304
2.9545	0.25320
2.9549	0.25332
2.9553	0.25323
2.9557	0.25331
2.9561	0.25324
2.9566	0.25304
2.9570	0.25308
2.9574	0.25320
2.9578	0.25320
2.9583	0.25312
2.9587	0.25317
2.9591	0.25318
2.9595	0.25317
2.9599	0.25325
2.9604	0.25341
2.9608	0.25339
2.9612	0.25339
2.9616	0.25338
2.9621	0.25339
2.9625	0.25340
2.9629	0.25344
2.9633	0.25348
2.9638	0.25359
2.9642	0.25353
2.9646	0.25333
2.9650	0.25349
2.9654	0.25363
2.9659	0.25367
2.9663	0.25376
2.9667	0.25382
2.9671	0.25389
2.9676	0.25382
2.9680	0.25351
2.9684	0.25338
2.9688	0.25357
2.9693	0.25369
2.9697	0.25373
2.9701	0.25383
2.9705	0.25385
2.9710	0.25377
2.9714	0.25389
2.9718	0.25400
2.9722	0.25402
2.9727	0.25397
2.9731	0.25407
2.9735	0.25415
2.9740	0.25424
2.9744	0.25439
2.9748	0.25428
2.9752	0.25429
2.9757	0.25424
2.9761	0.25430
2.9765	0.25451
2.9769	0.25439
2.9774	0.25421
2.9778	0.25436
2.9782	0.25452
2.9786	0.25458
2.9791	0.25456
2.9795	0.25456
2.9799	0.25473
2.9804	0.25467
2.9808	0.25466
2.9812	0.25468
2.9816	0.25471
2.9821	0.25473
2.9825	0.25475
2.9829	0.25472
2.9834	0.25486
2.9838	0.25502
2.9842	0.25512
2.9847	0.25506
2.9851	0.25489
2.9855	0.25488
2.9859	0.25502
2.9864	0.25499
2.9868	0.25504
2.9872	0.25533
2.9877	0.25551
2.9881	0.25550
2.9885	0.25540
2.9890	0.25523
2.9894	0.25529
2.9898	0.25540
2.9902	0.25547
2.9907	0.25556
2.9911	0.25562
2.9915	0.25566
2.9920	0.25557
2.9924	0.25562
2.9928	0.25581
2.9933	0.25576
2.9937	0.25579
2.9941	0.25584
2.9946	0.25578
2.9950	0.25583
2.9954	0.25588
2.9959	0.25578
2.9963	0.25588
2.9967	0.25593
2.9972	0.25587
2.9976	0.25597
2.9980	0.25610
2.9985	0.25617
2.9989	0.25619
2.9993	0.25627
2.9998	0.25631
3.0002	0.25633
3.0006	0.25645
3.0011	0.25649
3.0015	0.25642
3.0019	0.25642
3.0024	0.25652
3.0028	0.25667
3.0032	0.25687
3.0037	0.25693
3.0041	0.25681
3.0045	0.25675
3.0050	0.25676
3.0054	0.25682
3.0058	0.25694
3.0063	0.25711
3.0067	0.25716
3.0072	0.25700
3.0076	0.25676
3.0080	0.25677
3.0085	0.25702
3.0089	0.25719
3.0093	0.25725
3.0098	0.25729
3.0102	0.25736
3.0106	0.25733
3.0111	0.25736
3.0115	0.25737
3.0120	0.25742
3.0124	0.25752
3.0128	0.25751
3.0133	0.25761
3.0137	0.25779
3.0141	0.25781
3.0146	0.25790
3.0150	0.25791
3.0155	0.25781
3.0159	0.25793
3.0163	0.25800
3.0168	0.25793
3.0172	0.25791
3.0177	0.25788
3.0181	0.25802
3.0185	0.25824
3.0190	0.25820
3.0194	0.25822
3.0199	0.25831
3.0203	0.25830
3.0207	0.25829
3.0212	0.25825
3.0216	0.25826
3.0221	0.25820
3.0225	0.25813
3.0229	0.25829
3.0234	0.25856
3.0238	0.25858
3.0243	0.25851
3.0247	0.25824
3.0251	0.25807
3.0256	0.25835
3.0260	0.25853
3.0265	0.25818
3.0269	0.25829
3.0273	0.25873
3.0278	0.25881
3.0282	0.25883
3.0287	0.25884
3.0291	0.25892
3.0296	0.25895
3.0300	0.25901
3.0304	0.25900
3.0309	0.25900
3.0313	0.25910
3.0318	0.25919
3.0322	0.25928
3.0327	0.25918
3.0331	0.25919
3.0335	0.25914
3.0340	0.25904
3.0344	0.25913
3.0349	0.25922
3.0353	0.25916
3.0358	0.25926
3.0362	0.25935
3.0367	0.25940
3.0371	0.25953
3.0375	0.25955
3.0380	0.25942
3.0384	0.25930
3.0389	0.25930
3.0393	0.25954
3.0398	0.25977
3.0402	0.25975
3.0407	0.25961
3.0411	0.25962
3.0416	0.25977
3.0420	0.25980
3.0424	0.25980
3.0429	0.25987
3.0433	0.25985
3.0438	0.25983
3.0442	0.25982
3.0447	0.25983
3.0451	0.25989
3.0456	0.25992
3.0460	0.25999
3.0465	0.26006
3.0469	0.26009
3.0474	0.26000
3.0478	0.26005
3.0483	0.26019
3.0487	0.26006
3.0492	0.26002
3.0496	0.26022
3.0500	0.26028
3.0505	0.26011
3.0509	0.26009
3.0514	0.26017
3.0518	0.26040
3.0523	0.26043
3.0527	0.26030
3.0532	0.26033
3.0536	0.26026
3.0541	0.26020
3.0545	0.26034
3.0550	0.26043
3.0554	0.26056
3.0559	0.26052
3.0563	0.26055
3.0568	0.26063
3.0572	0.26036
3.0577	0.26028
3.0581	0.26044
3.0586	0.26044
3.0590	0.26041
3.0595	0.26043
3.0599	0.26057
3.0604	0.26073
3.0609	0.26075
3.0613	0.26074
3.0618	0.26084
3.0622	0.26098
3.0627	0.26099
3.0631	0.26089
3.0636	0.26091
3.0640	0.26093
3.0645	0.26100
3.0649	0.26095
3.0654	0.26092
3.0658	0.26098
3.0663	0.26089
3.0667	0.26098
3.0672	0.26101
3.0676	0.26101
3.0681	0.26104
3.0686	0.26105
3.0690	0.26113
3.0695	0.26113
3.0699	0.26116
3.0704	0.26118
3.0708	0.26121
3.0713	0.26130
3.0717	0.26131
3.0722	0.26109
3.0726	0.26113
3.0731	0.26129
3.0736	0.26130
3.0740	0.26132
3.0745	0.26140
3.0749	0.26142
3.0754	0.26148
3.0758	0.26141
3.0763	0.26138
3.0767	0.26149
3.0772	0.26155
3.0777	0.26162
3.0781	0.26157
3.0786	0.26147
3.0790	0.26163
3.0795	0.26177
3.0799	0.26160
3.0804	0.26155
3.0809	0.26172
3.0813	0.26176
3.0818	0.26180
3.0822	0.26177
3.0827	0.26171
3.0831	0.26179
3.0836	0.26188
3.0841	0.26186
3.0845	0.26189
3.0850	0.26201
3.0854	0.26203
3.0859	0.26196
3.0864	0.26209
3.0868	0.26211
3.0873	0.26203
3.0877	0.26209
3.0882	0.26218
3.0887	0.26220
3.0891	0.26240
3.0896	0.26232
3.0900	0.26230
3.0905	0.26241
3.0910	0.26236
3.0914	0.26231
3.0919	0.26246
3.0923	0.26256
3.0928	0.26234
3.0933	0.26207
3.0937	0.26218
3.0942	0.26251
3.0946	0.26274
3.0951	0.26268
3.0956	0.26270
3.0960	0.26279
3.0965	0.26271
3.0970	0.26269
3.0974	0.26291
3.0979	0.26294
3.0983	0.26285
3.0988	0.26287
3.0993	0.26294
3.0997	0.26302
3.1002	0.26304
3.1007	0.26312
3.1011	0.26323
3.1016	0.26320
3.1021	0.26314
3.1025	0.26313
3.1030	0.26310
3.1034	0.26318
3.1039	0.26334
3.1044	0.26352
3.1048	0.26353
3.1053	0.26344
3.1058	0.26348
3.1062	0.26356
3.1067	0.26351
3.1072	0.26357
3.1076	0.26371
3.1081	0.26374
3.1086	0.26376
3.1090	0.26392
3.1095	0.26389
3.1100	0.26385
3.1104	0.26394
3.1109	0.26390
3.1114	0.26393
3.1118	0.26406
3.1123	0.26413
3.1128	0.26419
3.1132	0.26432
3.1137	0.26431
3.1142	0.26418
3.1146	0.26433
3.1151	0.26440
3.1156	0.26441
3.1160	0.26437
3.1165	0.26445
3.1170	0.26464
3.1174	0.26471
3.1179	0.26454
3.1184	0.26456
3.1188	0.26471
3.1193	0.26486
3.1198	0.26491
3.1203	0.26482
3.1207	0.26488
3.1212	0.26487
3.1217	0.26485
3.1221	0.26496
3.1226	0.26505
3.1231	0.26504
3.1235	0.26509
3.1240	0.26519
3.1245	0.26531
3.1250	0.26533
3.1254	0.26534
3.1259	0.26536
3.1264	0.26546
3.1268	0.26546
3.1273	0.26545
3.1278	0.26547
3.1283	0.26558
3.1287	0.26568
3.1292	0.26573
3.1297	0.26571
3.1301	0.26576
3.1306	0.26587
3.1311	0.26602
3.1316	0.26599
3.1320	0.26594
3.1325	0.26597
3.1330	0.26610
3.1335	0.26626
3.1339	0.26631
3.1344	0.26627
3.1349	0.26618
3.1353	0.26628
3.1358	0.26637
3.1363	0.26647
3.1368	0.26658
3.1372	0.26663
3.1377	0.26668
3.1382	0.26677
3.1387	0.26674
3.1391	0.26670
3.1396	0.26681
3.1401	0.26682
3.1406	0.26677
3.1410	0.26694
3.1415	0.26714
3.1420	0.26704
3.1425	0.26698
3.1430	0.26707
3.1434	0.26726
3.1439	0.26734
3.1444	0.26740
3.1449	0.26741
3.1453	0.26738
3.1458	0.26750
3.1463	0.26758
3.1468	0.26752
3.1472	0.26769
3.1477	0.26770
3.1482	0.26762
3.1487	0.26767
3.1492	0.26769
3.1496	0.26774
3.1501	0.26790
3.1506	0.26798
3.1511	0.26804
3.1515	0.26820
3.1520	0.26820
3.1525	0.26803
3.1530	0.26815
3.1535	0.26822
3.1539	0.26827
3.1544	0.26835
3.1549	0.26838
3.1554	0.26845
3.1559	0.26856
3.1563	0.26867
3.1568	0.26863
3.1573	0.26876
3.1578	0.26879
3.1583	0.26875
3.1587	0.26881
3.1592	0.26890
3.1597	0.26897
3.1602	0.26891
3.1607	0.26891
3.1612	0.26899
3.1616	0.26914
3.1621	0.26914
3.1626	0.26914
3.1631	0.26919
3.1636	0.26939
3.1640	0.26955
3.1645	0.26956
3.1650	0.26950
3.1655	0.26946
3.1660	0.26953
3.1665	0.26961
3.1669	0.26963
3.1674	0.26974
3.1679	0.26991
3.1684	0.26992
3.1689	0.26978
3.1694	0.26985
3.1699	0.27000
3.1703	0.27001
3.1708	0.27009
3.1713	0.27013
3.1718	0.27024
3.1723	0.27010
3.1728	0.26968
3.1732	0.26980
3.1737	0.27013
3.1742	0.27024
3.1747	0.27034
3.1752	0.27048
3.1757	0.27052
3.1762	0.27058
3.1766	0.27067
3.1771	0.27072
3.1776	0.27078
3.1781	0.27084
3.1786	0.27080
3.1791	0.27077
3.1796	0.27095
3.1801	0.27109
3.1805	0.27108
3.1810	0.27114
3.1815	0.27117
3.1820	0.27120
3.1825	0.27127
3.1830	0.27142
3.1835	0.27145
3.1840	0.27140
3.1845	0.27141
3.1849	0.27151
3.1854	0.27144
3.1859	0.27135
3.1864	0.27156
3.1869	0.27174
3.1874	0.27171
3.1879	0.27170
3.1884	0.27178
3.1889	0.27193
3.1893	0.27192
3.1898	0.27198
3.1903	0.27209
3.1908	0.27212
3.1913	0.27219
3.1918	0.27236
3.1923	0.27232
3.1928	0.27225
3.1933	0.27229
3.1938	0.27241
3.1943	0.27238
3.1948	0.27231
3.1952	0.27242
3.1957	0.27248
3.1962	0.27256
3.1967	0.27262
3.1972	0.27271
3.1977	0.27274
3.1982	0.27270
3.1987	0.27289
3.1992	0.27298
3.1997	0.27287
3.2002	0.27293
3.2007	0.27310
3.2012	0.27316
3.2017	0.27322
3.2022	0.27325
3.2026	0.27328
3.2031	0.27330
3.2036	0.27328
3.2041	0.27338
3.2046	0.27341
3.2051	0.27315
3.2056	0.27313
3.2061	0.27327
3.2066	0.27345
3.2071	0.27361
3.2076	0.27367
3.2081	0.27366
3.2086	0.27344
3.2091	0.27330
3.2096	0.27354
3.2101	0.27379
3.2106	0.27377
3.2111	0.27371
3.2116	0.27388
3.2121	0.27406
3.2126	0.27419
3.2131	0.27418
3.2136	0.27416
3.2141	0.27419
3.2146	0.27431
3.2151	0.27434
3.2156	0.27428
3.2161	0.27451
3.2166	0.27464
3.2171	0.27432
3.2176	0.27408
3.2181	0.27440
3.2185	0.27463
3.2190	0.27466
3.2195	0.27465
3.2200	0.27465
3.2205	0.27466
3.2210	0.27468
3.2215	0.27487
3.2221	0.27499
3.2226	0.27499
3.2231	0.27505
3.2236	0.27499
3.2241	0.27492
3.2246	0.27516
3.2251	0.27517
3.2256	0.27513
3.2261	0.27514
3.2266	0.27525
3.2271	0.27523
3.2276	0.27536
3.2281	0.27551
3.2286	0.27546
3.2291	0.27547
3.2296	0.27555
3.2301	0.27551
3.2306	0.27552
3.2311	0.27565
3.2316	0.27577
3.2321	0.27579
3.2326	0.27574
3.2331	0.27581
3.2336	0.27583
3.2341	0.27594
3.2346	0.27596
3.2351	0.27596
3.2356	0.27605
3.2361	0.27600
3.2366	0.27585
3.2371	0.27605
3.2376	0.27619
3.2381	0.27613
3.2387	0.27611
3.2392	0.27617
3.2397	0.27634
3.2402	0.27641
3.2407	0.27642
3.2412	0.27642
3.2417	0.27647
3.2422	0.27647
3.2427	0.27626
3.2432	0.27618
3.2437	0.27636
3.2442	0.27653
3.2447	0.27657
3.2452	0.27670
3.2457	0.27683
3.2463	0.27684
3.2468	0.27650
3.2473	0.27648
3.2478	0.27672
3.2483	0.27688
3.2488	0.27689
3.2493	0.27659
3.2498	0.27661
3.2503	0.27701
3.2508	0.27706
3.2513	0.27692
3.2519	0.27692
3.2524	0.27707
3.2529	0.27713
3.2534	0.27721
3.2539	0.27731
3.2544	0.27736
3.2549	0.27734
3.2554	0.27731
3.2559	0.27738
3.2565	0.27740
3.2570	0.27744
3.2575	0.27751
3.2580	0.27757
3.2585	0.27766
3.2590	0.27778
3.2595	0.27775
3.2600	0.27758
3.2605	0.27750
3.2611	0.27772
3.2616	0.27771
3.2621	0.27776
3.2626	0.27800
3.2631	0.27799
3.2636	0.27789
3.2641	0.27795
3.2647	0.27795
3.2652	0.27791
3.2657	0.27803
3.2662	0.27814
3.2667	0.27813
3.2672	0.27815
3.2677	0.27824
3.2683	0.27828
3.2688	0.27834
3.2693	0.27838
3.2698	0.27845
3.2703	0.27841
3.2708	0.27838
3.2713	0.27843
3.2719	0.27842
3.2724	0.27845
3.2729	0.27853
3.2734	0.27865
3.2739	0.27865
3.2744	0.27856
3.2750	0.27854
3.2755	0.27867
3.2760	0.27879
3.2765	0.27879
3.2770	0.27877
3.2775	0.27884
3.2781	0.27873
3.2786	0.27865
3.2791	0.27886
3.2796	0.27895
3.2801	0.27887
3.2807	0.27896
3.2812	0.27907
3.2817	0.27917
3.2822	0.27928
3.2827	0.27923
3.2833	0.27916
3.2838	0.27925
3.2843	0.27913
3.2848	0.27919
3.2853	0.27927
3.2859	0.27927
3.2864	0.27936
3.2869	0.27932
3.2874	0.27911
3.2879	0.27907
3.2885	0.27926
3.2890	0.27938
3.2895	0.27929
3.2900	0.27937
3.2906	0.27959
3.2911	0.27970
3.2916	0.27973
3.2921	0.27972
3.2926	0.27968
3.2932	0.27970
3.2937	0.27973
3.2942	0.27980
3.2947	0.27991
3.2953	0.27996
3.2958	0.27983
3.2963	0.27991
3.2968	0.27999
3.2974	0.27994
3.2979	0.27987
3.2984	0.27984
3.2989	0.28004
3.2994	0.28015
3.3000	0.28004
3.3005	0.27996
3.3010	0.27995
3.3016	0.28003
3.3021	0.28009
3.3026	0.28010
3.3031	0.28018
3.3037	0.28015
3.3042	0.28009
3.3047	0.28023
3.3052	0.28029
3.3058	0.28036
3.3063	0.28031
3.3068	0.28014
3.3073	0.28020
3.3079	0.28032
3.3084	0.28033
3.3089	0.28039
3.3095	0.28044
3.3100	0.28051
3.3105	0.28064
3.3110	0.28068
3.3116	0.28075
3.3121	0.28073
3.3126	0.28056
3.3132	0.28053
3.3137	0.28056
3.3142	0.28060
3.3147	0.28060
3.3153	0.28061
3.3158	0.28069
3.3163	0.28063
3.3169	0.28069
3.3174	0.28074
3.3179	0.28071
3.3185	0.28066
3.3190	0.28064
3.3195	0.28070
3.3200	0.28085
3.3206	0.28093
3.3211	0.28079
3.3216	0.28061
3.3222	0.28074
3.3227	0.28090
3.3232	0.28099
3.3238	0.28109
3.3243	0.28111
3.3248	0.28112
3.3254	0.28109
3.3259	0.28110
3.3264	0.28107
3.3270	0.28108
3.3275	0.28116
3.3280	0.28123
3.3286	0.28124
3.3291	0.28122
3.3296	0.28131
3.3302	0.28140
3.3307	0.28132
3.3312	0.28123
3.3318	0.28132
3.3323	0.28139
3.3329	0.28134
3.3334	0.28131
3.3339	0.28128
3.3345	0.28134
3.3350	0.28127
3.3355	0.28131
3.3361	0.28130
3.3366	0.28115
3.3371	0.28114
3.3377	0.28124
3.3382	0.28128
3.3388	0.28131
3.3393	0.28128
3.3398	0.28121
3.3404	0.28129
3.3409	0.28133
3.3414	0.28128
3.3420	0.28114
3.3425	0.28097
3.3431	0.28099
3.3436	0.28113
3.3441	0.28125
3.3447	0.28125
3.3452	0.28127
3.3458	0.28127
3.3463	0.28115
3.3468	0.28106
3.3474	0.28109
3.3479	0.28126
3.3485	0.28132
3.3490	0.28116
3.3495	0.28100
3.3501	0.28099
3.3506	0.28100
3.3512	0.28085
3.3517	0.28078
3.3522	0.28091
3.3528	0.28091
3.3533	0.28082
3.3539	0.28073
3.3544	0.28065
3.3550	0.28053
3.3555	0.28050
3.3560	0.28052
3.3566	0.28046
3.3571	0.28040
3.3577	0.28038
3.3582	0.28027
3.3588	0.28022
3.3593	0.28013
3.3598	0.28009
3.3604	0.28003
3.3609	0.27997
3.3615	0.28003
3.3620	0.27993
3.3626	0.27965
3.3631	0.27949
3.3637	0.27950
3.3642	0.27951
3.3648	0.27942
3.3653	0.27924
3.3658	0.27915
3.3664	0.27910
3.3669	0.27895
3.3675	0.27868
3.3680	0.27859
3.3686	0.27858
3.3691	0.27855
3.3697	0.27844
3.3702	0.27836
3.3708	0.27824
3.3713	0.27818
3.3719	0.27813
3.3724	0.27803
3.3730	0.27795
3.3735	0.27795
3.3741	0.27789
3.3746	0.27768
3.3752	0.27766
3.3757	0.27766
3.3763	0.27763
3.3768	0.27765
3.3774	0.27764
3.3779	0.27767
3.3785	0.27765
3.3790	0.27764
3.3796	0.27764
3.3801	0.27767
3.3807	0.27773
3.3812	0.27790
3.3818	0.27787
3.3823	0.27778
3.3829	0.27793
3.3834	0.27804
3.3840	0.27794
3.3845	0.27790
3.3851	0.27807
3.3856	0.27828
3.3862	0.27837
3.3867	0.27836
3.3873	0.27831
3.3878	0.27820
3.3884	0.27824
3.3889	0.27834
3.3895	0.27836
3.3901	0.27845
3.3906	0.27850
3.3912	0.27839
3.3917	0.27834
3.3923	0.27836
3.3928	0.27828
3.3934	0.27811
3.3939	0.27788
3.3945	0.27782
3.3950	0.27783
3.3956	0.27780
3.3962	0.27770
3.3967	0.27759
3.3973	0.27738
3.3978	0.27727
3.3984	0.27716
3.3989	0.27705
3.3995	0.27707
3.4001	0.27699
3.4006	0.27679
3.4012	0.27675
3.4017	0.27679
3.4023	0.27670
3.4028	0.27648
3.4034	0.27655
3.4040	0.27649
3.4045	0.27630
3.4051	0.27620
3.4056	0.27625
3.4062	0.27624
3.4068	0.27607
3.4073	0.27602
3.4079	0.27604
3.4084	0.27614
3.4090	0.27612
3.4096	0.27596
3.4101	0.27597
3.4107	0.27611
3.4112	0.27610
3.4118	0.27601
3.4124	0.27605
3.4129	0.27615
3.4135	0.27613
3.4140	0.27596
3.4146	0.27600
3.4152	0.27622
3.4157	0.27638
3.4163	0.27639
3.4169	0.27657
3.4174	0.27669
3.4180	0.27663
3.4185	0.27667
3.4191	0.27682
3.4197	0.27695
3.4202	0.27714
3.4208	0.27731
3.4214	0.27750
3.4219	0.27759
3.4225	0.27773
3.4231	0.27789
3.4236	0.27803
3.4242	0.27823
3.4248	0.27836
3.4253	0.27835
3.4259	0.27852
3.4265	0.27878
3.4270	0.27897
3.4276	0.27910
3.4282	0.27922
3.4287	0.27936
3.4293	0.27945
3.4299	0.27951
3.4304	0.27972
3.4310	0.27995
3.4316	0.28012
3.4321	0.28014
3.4327	0.28010
3.4333	0.28017
3.4338	0.28035
3.4344	0.28054
3.4350	0.28075
3.4355	0.28091
3.4361	0.28096
3.4367	0.28100
3.4372	0.28104
3.4378	0.28122
3.4384	0.28146
3.4390	0.28154
3.4395	0.28157
3.4401	0.28156
3.4407	0.28167
3.4412	0.28178
3.4418	0.28189
3.4424	0.28196
3.4430	0.28200
3.4435	0.28208
3.4441	0.28205
3.4447	0.28208
3.4452	0.28217
3.4458	0.28226
3.4464	0.28243
3.4470	0.28244
3.4475	0.28242
3.4481	0.28249
3.4487	0.28256
3.4492	0.28268
3.4498	0.28273
3.4504	0.28277
3.4510	0.28288
3.4515	0.28289
3.4521	0.28293
3.4527	0.28290
3.4533	0.28296
3.4538	0.28298
3.4544	0.28316
3.4550	0.28337
3.4556	0.28337
3.4561	0.28338
3.4567	0.28338
3.4573	0.28343
3.4579	0.28348
3.4585	0.28346
3.4590	0.28344
3.4596	0.28359
3.4602	0.28363
3.4608	0.28355
3.4613	0.28362
3.4619	0.28376
3.4625	0.28376
3.4631	0.28364
3.4637	0.28368
3.4642	0.28376
3.4648	0.28372
3.4654	0.28367
3.4660	0.28373
3.4665	0.28379
3.4671	0.28385
3.4677	0.28382
3.4683	0.28383
3.4689	0.28371
3.4694	0.28368
3.4700	0.28363
3.4706	0.28353
3.4712	0.28351
3.4718	0.28354
3.4723	0.28351
3.4729	0.28349
3.4735	0.28348
3.4741	0.28339
3.4747	0.28342
3.4753	0.28352
3.4758	0.28341
3.4764	0.28333
3.4770	0.28329
3.4776	0.28334
3.4782	0.28340
3.4788	0.28345
3.4793	0.28349
3.4799	0.28335
3.4805	0.28314
3.4811	0.28302
3.4817	0.28309
3.4823	0.28328
3.4828	0.28336
3.4834	0.28323
3.4840	0.28322
3.4846	0.28337
3.4852	0.28340
3.4858	0.28331
3.4864	0.28334
3.4869	0.28339
3.4875	0.28342
3.4881	0.28338
3.4887	0.28333
3.4893	0.28336
3.4899	0.28332
3.4905	0.28323
3.4911	0.28329
3.4916	0.28333
3.4922	0.28336
3.4928	0.28334
3.4934	0.28315
3.4940	0.28313
3.4946	0.28321
3.4952	0.28322
3.4958	0.28317
3.4963	0.28321
3.4969	0.28320
3.4975	0.28315
3.4981	0.28322
3.4987	0.28328
3.4993	0.28327
3.4999	0.28324
3.5005	0.28332
3.5011	0.28344
3.5017	0.28356
3.5023	0.28362
3.5028	0.28365
3.5034	0.28375
3.5040	0.28384
3.5046	0.28395
3.5052	0.28418
3.5058	0.28431
3.5064	0.28440
3.5070	0.28459
3.5076	0.28480
3.5082	0.28496
3.5088	0.28513
3.5094	0.28519
3.5100	0.28532
3.5106	0.28551
3.5111	0.28559
3.5117	0.28567
3.5123	0.28593
3.5129	0.28610
3.5135	0.28627
3.5141	0.28634
3.5147	0.28648
3.5153	0.28661
3.5159	0.28680
3.5165	0.28688
3.5171	0.28695
3.5177	0.28698
3.5183	0.28710
3.5189	0.28726
3.5195	0.28744
3.5201	0.28751
3.5207	0.28748
3.5213	0.28752
3.5219	0.28778
3.5225	0.28788
3.5231	0.28774
3.5237	0.28779
3.5243	0.28801
3.5249	0.28821
3.5255	0.28822
3.5261	0.28833
3.5267	0.28847
3.5273	0.28857
3.5279	0.28857
3.5285	0.28853
3.5291	0.28865
3.5297	0.28878
3.5303	0.28877
3.5309	0.28891
3.5315	0.28899
3.5321	0.28910
3.5327	0.28921
3.5333	0.28914
3.5339	0.28913
3.5345	0.28920
3.5351	0.28926
3.5357	0.28924
3.5363	0.28926
3.5369	0.28941
3.5375	0.28945
3.5381	0.28947
3.5387	0.28956
3.5393	0.28966
3.5399	0.28972
3.5405	0.28966
3.5411	0.28973
3.5417	0.28982
3.5423	0.28975
3.5429	0.28977
3.5435	0.28992
3.5441	0.28997
3.5448	0.28987
3.5454	0.28985
3.5460	0.28997
3.5466	0.29006
3.5472	0.29006
3.5478	0.29007
3.5484	0.29014
3.5490	0.29015
3.5496	0.29019
3.5502	0.29018
3.5508	0.29030
3.5514	0.29039
3.5520	0.29037
3.5526	0.29039
3.5533	0.29037
3.5539	0.29041
3.5545	0.29050
3.5551	0.29049
3.5557	0.29054
3.5563	0.29055
3.5569	0.29053
3.5575	0.29057
3.5581	0.29067
3.5587	0.29081
3.5594	0.29074
3.5600	0.29064
3.5606	0.29071
3.5612	0.29076
3.5618	0.29074
3.5624	0.29068
3.5630	0.29065
3.5636	0.29069
3.5642	0.29069
3.5649	0.29076
3.5655	0.29083
3.5661	0.29089
3.5667	0.29097
3.5673	0.29091
3.5679	0.29090
3.5685	0.29089
3.5692	0.29087
3.5698	0.29102
3.5704	0.29110
3.5710	0.29108
3.5716	0.29109
3.5722	0.29107
3.5728	0.29116
3.5735	0.29123
3.5741	0.29110
3.5747	0.29097
3.5753	0.29107
3.5759	0.29117
3.5765	0.29120
3.5772	0.29122
3.5778	0.29123
3.5784	0.29124
3.5790	0.29124
3.5796	0.29130
3.5802	0.29135
3.5809	0.29126
3.5815	0.29109
3.5821	0.29112
3.5827	0.29131
3.5833	0.29136
3.5840	0.29127
3.5846	0.29129
3.5852	0.29136
3.5858	0.29138
3.5864	0.29131
3.5871	0.29126
3.5877	0.29127
3.5883	0.29133
3.5889	0.29145
3.5895	0.29151
3.5902	0.29148
3.5908	0.29141
3.5914	0.29147
3.5920	0.29154
3.5926	0.29156
3.5933	0.29148
3.5939	0.29146
3.5945	0.29163
3.5951	0.29165
3.5958	0.29161
3.5964	0.29161
3.5970	0.29162
3.5976	0.29156
3.5983	0.29156
3.5989	0.29151
3.5995	0.29159
3.6001	0.29172
3.6008	0.29167
3.6014	0.29166
3.6020	0.29173
3.6026	0.29158
3.6033	0.29164
3.6039	0.29172
3.6045	0.29156
3.6051	0.29164
3.6058	0.29179
3.6064	0.29179
3.6070	0.29174
3.6076	0.29170
3.6083	0.29174
3.6089	0.29168
3.6095	0.29170
3.6102	0.29182
3.6108	0.29186
3.6114	0.29183
3.6120	0.29187
3.6127	0.29182
3.6133	0.29175
3.6139	0.29178
3.6146	0.29187
3.6152	0.29192
3.6158	0.29198
3.6164	0.29194
3.6171	0.29190
3.6177	0.29194
3.6183	0.29191
3.6190	0.29195
3.6196	0.29198
3.6202	0.29198
3.6209	0.29194
3.6215	0.29192
3.6221	0.29199
3.6228	0.29196
3.6234	0.29204
3.6240	0.29202
3.6247	0.29197
3.6253	0.29196
3.6259	0.29199
3.6266	0.29208
3.6272	0.29206
3.6278	0.29205
3.6285	0.29214
3.6291	0.29201
3.6297	0.29196
3.6304	0.29208
3.6310	0.29209
3.6316	0.29206
3.6323	0.29202
3.6329	0.29203
3.6336	0.29208
3.6342	0.29209
3.6348	0.29205
3.6355	0.29196
3.6361	0.29200
3.6367	0.29199
3.6374	0.29198
3.6380	0.29208
3.6387	0.29222
3.6393	0.29223
3.6399	0.29212
3.6406	0.29207
3.6412	0.29206
3.6419	0.29219
3.6425	0.29219
3.6431	0.29211
3.6438	0.29217
3.6444	0.29213
3.6451	0.29210
3.6457	0.29213
3.6463	0.29224
3.6470	0.29224
3.6476	0.29223
3.6483	0.29222
3.6489	0.29220
3.6495	0.29221
3.6502	0.29220
3.6508	0.29223
3.6515	0.29227
3.6521	0.29225
3.6528	0.29215
3.6534	0.29212
3.6540	0.29222
3.6547	0.29227
3.6553	0.29232
3.6560	0.29233
3.6566	0.29229
3.6573	0.29223
3.6579	0.29230
3.6586	0.29235
3.6592	0.29234
3.6598	0.29236
3.6605	0.29237
3.6611	0.29235
3.6618	0.29234
3.6624	0.29235
3.6631	0.29234
3.6637	0.29236
3.6644	0.29237
3.6650	0.29233
3.6657	0.29239
3.6663	0.29248
3.6670	0.29250
3.6676	0.29241
3.6683	0.29229
3.6689	0.29228
3.6696	0.29237
3.6702	0.29250
3.6709	0.29253
3.6715	0.29245
3.6722	0.29238
3.6728	0.29236
3.6735	0.29245
3.6741	0.29250
3.6748	0.29248
3.6754	0.29255
3.6761	0.29264
3.6767	0.29255
3.6774	0.29244
3.6780	0.29249
3.6787	0.29252
3.6793	0.29238
3.6800	0.29239
3.6806	0.29246
3.6813	0.29256
3.6819	0.29255
3.6826	0.29253
3.6832	0.29249
3.6839	0.29249
3.6846	0.29251
3.6852	0.29257
3.6859	0.29255
3.6865	0.29252
3.6872	0.29257
3.6878	0.29256
3.6885	0.29249
3.6891	0.29249
3.6898	0.29256
3.6905	0.29254
3.6911	0.29250
3.6918	0.29250
3.6924	0.29253
3.6931	0.29268
3.6937	0.29270
3.6944	0.29262
3.6951	0.29259
3.6957	0.29262
3.6964	0.29253
3.6970	0.29250
3.6977	0.29266
3.6983	0.29273
3.6990	0.29260
3.6997	0.29256
3.7003	0.29261
3.7010	0.29262
3.7016	0.29263
3.7023	0.29259
3.7030	0.29245
3.7036	0.29248
3.7043	0.29250
3.7050	0.29249
3.7056	0.29257
3.7063	0.29261
3.7069	0.29260
3.7076	0.29260
3.7083	0.29262
3.7089	0.29258
3.7096	0.29258
3.7103	0.29249
3.7109	0.29250
3.7116	0.29250
3.7122	0.29243
3.7129	0.29252
3.7136	0.29254
3.7142	0.29251
3.7149	0.29247
3.7156	0.29244
3.7162	0.29242
3.7169	0.29242
3.7176	0.29248
3.7182	0.29243
3.7189	0.29241
3.7196	0.29252
3.7202	0.29258
3.7209	0.29253
3.7216	0.29243
3.7222	0.29239
3.7229	0.29244
3.7236	0.29252
3.7242	0.29252
3.7249	0.29244
3.7256	0.29239
3.7263	0.29243
3.7269	0.29239
3.7276	0.29233
3.7283	0.29233
3.7289	0.29243
3.7296	0.29249
3.7303	0.29244
3.7309	0.29235
3.7316	0.29226
3.7323	0.29224
3.7330	0.29235
3.7336	0.29239
3.7343	0.29233
3.7350	0.29238
3.7357	0.29237
3.7363	0.29226
3.7370	0.29229
3.7377	0.29229
3.7383	0.29224
3.7390	0.29214
3.7397	0.29218
3.7404	0.29230
3.7410	0.29229
3.7417	0.29216
3.7424	0.29220
3.7431	0.29227
3.7437	0.29224
3.7444	0.29220
3.7451	0.29224
3.7458	0.29220
3.7464	0.29213
3.7471	0.29211
3.7478	0.29206
3.7485	0.29204
3.7492	0.29206
3.7498	0.29210
3.7505	0.29217
3.7512	0.29218
3.7519	0.29215
3.7525	0.29213
3.7532	0.29219
3.7539	0.29221
3.7546	0.29215
3.7553	0.29203
3.7559	0.29198
3.7566	0.29204
3.7573	0.29203
3.7580	0.29202
3.7587	0.29206
3.7594	0.29208
3.7600	0.29199
3.7607	0.29195
3.7614	0.29195
3.7621	0.29185
3.7628	0.29175
3.7634	0.29181
3.7641	0.29186
3.7648	0.29177
3.7655	0.29181
3.7662	0.29182
3.7669	0.29184
3.7675	0.29177
3.7682	0.29171
3.7689	0.29171
3.7696	0.29164
3.7703	0.29162
3.7710	0.29171
3.7717	0.29171
3.7723	0.29170
3.7730	0.29166
3.7737	0.29164
3.7744	0.29156
3.7751	0.29150
3.7758	0.29151
3.7765	0.29151
3.7772	0.29147
3.7778	0.29146
3.7785	0.29143
3.7792	0.29151
3.7799	0.29151
3.7806	0.29142
3.7813	0.29139
3.7820	0.29140
3.7827	0.29136
3.7834	0.29132
3.7840	0.29135
3.7847	0.29135
3.7854	0.29139
3.7861	0.29137
3.7868	0.29130
3.7875	0.29123
3.7882	0.29118
3.7889	0.29122
3.7896	0.29118
3.7903	0.29118
3.7910	0.29112
3.7917	0.29105
3.7923	0.29109
3.7930	0.29113
3.7937	0.29109
3.7944	0.29116
3.7951	0.29117
3.7958	0.29111
3.7965	0.29103
3.7972	0.29101
3.7979	0.29102
3.7986	0.29097
3.7993	0.29099
3.8000	0.29088
3.8007	0.29079
3.8014	0.29082
3.8021	0.29085
3.8028	0.29079
3.8035	0.29080
3.8042	0.29083
3.8049	0.29090
3.8056	0.29087
3.8063	0.29070
3.8070	0.29071
3.8077	0.29078
3.8084	0.29077
3.8091	0.29065
3.8098	0.29064
3.8105	0.29068
3.8112	0.29063
3.8119	0.29059
3.8126	0.29064
3.8133	0.29065
3.8140	0.29062
3.8147	0.29052
3.8154	0.29048
3.8161	0.29047
3.8168	0.29053
3.8175	0.29054
3.8182	0.29044
3.8189	0.29040
3.8196	0.29047
3.8203	0.29044
3.8210	0.29032
3.8217	0.29034
3.8224	0.29033
3.8231	0.29027
3.8238	0.29030
3.8245	0.29024
3.8252	0.29021
3.8259	0.29028
3.8266	0.29029
3.8273	0.29030
3.8280	0.29031
3.8287	0.29025
3.8295	0.29023
3.8302	0.29017
3.8309	0.29010
3.8316	0.29004
3.8323	0.29010
3.8330	0.29017
3.8337	0.29015
3.8344	0.29010
3.8351	0.29005
3.8358	0.29002
3.8365	0.29005
3.8373	0.29002
3.8380	0.28999
3.8387	0.28999
3.8394	0.28993
3.8401	0.28993
3.8408	0.28990
3.8415	0.28983
3.8422	0.28978
3.8429	0.28979
3.8437	0.28983
3.8444	0.28983
3.8451	0.28982
3.8458	0.28978
3.8465	0.28975
3.8472	0.28970
3.8479	0.28969
3.8486	0.28963
3.8494	0.28961
3.8501	0.28960
3.8508	0.28963
3.8515	0.28966
3.8522	0.28963
3.8529	0.28961
3.8536	0.28961
3.8544	0.28961
3.8551	0.28953
3.8558	0.28947
3.8565	0.28946
3.8572	0.28949
3.8579	0.28940
3.8587	0.28943
3.8594	0.28944
3.8601	0.28941
3.8608	0.28937
3.8615	0.28931
3.8623	0.28934
3.8630	0.28932
3.8637	0.28925
3.8644	0.28931
3.8651	0.28930
3.8659	0.28921
3.8666	0.28917
3.8673	0.28913
3.8680	0.28909
3.8687	0.28910
3.8695	0.28913
3.8702	0.28908
3.8709	0.28898
3.8716	0.28898
3.8724	0.28899
3.8731	0.28904
3.8738	0.28909
3.8745	0.28899
3.8753	0.28896
3.8760	0.28887
3.8767	0.28884
3.8774	0.28885
3.8781	0.28885
3.8789	0.28883
3.8796	0.28880
3.8803	0.28884
3.8811	0.28878
3.8818	0.28872
3.8825	0.28867
3.8832	0.28864
3.8840	0.28872
3.8847	0.28868
3.8854	0.28864
3.8861	0.28863
3.8869	0.28853
3.8876	0.28844
3.8883	0.28845
3.8891	0.28848
3.8898	0.28847
3.8905	0.28841
3.8912	0.28840
3.8920	0.28840
3.8927	0.28835
3.8934	0.28825
3.8942	0.28819
3.8949	0.28821
3.8956	0.28818
3.8964	0.28818
3.8971	0.28819
3.8978	0.28810
3.8986	0.28806
3.8993	0.28800
3.9000	0.28799
3.9008	0.28804
3.9015	0.28805
3.9022	0.28794
3.9030	0.28794
3.9037	0.28792
3.9044	0.28782
3.9052	0.28777
3.9059	0.28775
3.9066	0.28769
3.9074	0.28771
3.9081	0.28761
3.9088	0.28760
3.9096	0.28765
3.9103	0.28755
3.9111	0.28739
3.9118	0.28740
3.9125	0.28752
3.9133	0.28748
3.9140	0.28736
3.9147	0.28737
3.9155	0.28738
3.9162	0.28730
3.9170	0.28725
3.9177	0.28727
3.9184	0.28722
3.9192	0.28721
3.9199	0.28722
3.9207	0.28713
3.9214	0.28707
3.9222	0.28702
3.9229	0.28697
3.9236	0.28691
3.9244	0.28695
3.9251	0.28693
3.9259	0.28684
3.9266	0.28676
3.9274	0.28683
3.9281	0.28681
3.9288	0.28674
3.9296	0.28669
3.9303	0.28662
3.9311	0.28653
3.9318	0.28645
3.9326	0.28642
3.9333	0.28642
3.9341	0.28632
3.9348	0.28630
3.9355	0.28635
3.9363	0.28628
3.9370	0.28616
3.9378	0.28608
3.9385	0.28611
3.9393	0.28611
3.9400	0.28602
3.9408	0.28605
3.9415	0.28606
3.9423	0.28596
3.9430	0.28590
3.9438	0.28590
3.9445	0.28588
3.9453	0.28582
3.9460	0.28581
3.9468	0.28583
3.9475	0.28578
3.9483	0.28567
3.9490	0.28564
3.9498	0.28558
3.9505	0.28550
3.9513	0.28549
3.9520	0.28553
3.9528	0.28554
3.9536	0.28546
3.9543	0.28537
3.9551	0.28533
3.9558	0.28526
3.9566	0.28521
3.9573	0.28516
3.9581	0.28512
3.9588	0.28510
3.9596	0.28506
3.9603	0.28503
3.9611	0.28505
3.9619	0.28507
3.9626	0.28497
3.9634	0.28488
3.9641	0.28491
3.9649	0.28494
3.9656	0.28488
3.9664	0.28484
3.9672	0.28478
3.9679	0.28472
3.9687	0.28473
3.9694	0.28469
3.9702	0.28465
3.9710	0.28461
3.9717	0.28465
3.9725	0.28461
3.9732	0.28456
3.9740	0.28451
3.9748	0.28444
3.9755	0.28441
3.9763	0.28434
3.9771	0.28437
3.9778	0.28446
3.9786	0.28444
3.9793	0.28433
3.9801	0.28426
3.9809	0.28433
3.9816	0.28428
3.9824	0.28422
3.9832	0.28417
3.9839	0.28414
3.9847	0.28418
3.9855	0.28423
3.9862	0.28414
3.9870	0.28403
3.9878	0.28408
3.9885	0.28407
3.9893	0.28400
3.9901	0.28406
3.9908	0.28397
3.9916	0.28387
3.9924	0.28385
3.9931	0.28384
3.9939	0.28388
3.9947	0.28394
3.9954	0.28385
3.9962	0.28375
3.9970	0.28377
3.9978	0.28376
3.9985	0.28367
3.9993	0.28368
4.0001	0.28373
