Wavelengths (Âµm)
0.44602
0.456
0.46598
0.47596
0.48595
0.49593
0.50591
0.51589
0.52587
0.53585
0.54583
0.55581
0.56579
0.57577
0.58576
0.59574
0.60572
0.6157
0.62568
0.63566
0.64564
0.65562
0.6656
0.67558
0.68556
0.69555
0.70553
0.71551
0.72549
0.73547
0.74545
0.75543
0.76541
0.77539
0.78537
0.79536
0.80534
0.81532
0.8253
0.83528
0.84526
0.85524
0.86522
0.8752
0.88518
0.89517
0.90515
0.91513
0.92511
0.93509
0.94507
0.95505
0.96503
0.97501
0.98499
0.99497
1.005
1.0149
1.0249
1.0349
1.0449
1.0549
1.0648
1.0748
1.0848
1.0948
1.1048
1.1148
1.1247
1.1347
1.1447
1.1547
1.1647
1.1746
1.1846
1.1946
1.2046
1.2146
1.2245
1.2345
1.2445
1.2545
1.2645
1.2744
1.2844
1.2944
1.3044
1.3144
1.3244
1.3343
1.3443
1.3543
1.3643
1.3743
1.3842
1.3942
1.4042
1.4142
1.4242
1.4341
1.4441
1.4541
1.4641
1.4741
1.484
1.494
1.504
1.514
1.524
1.534
1.5439
1.5539
1.5639
1.5739
1.5839
1.5938
1.6038
1.6138
1.6238
1.6338
1.6437
1.6537
1.6637
1.6737
1.6837
1.6936
1.7036
1.7136
1.7236
1.7336
1.7436
1.7535
1.7635
1.7735
1.7835
1.7935
1.8034
1.8134
1.8234
1.8334
1.8434
1.8533
1.8633
1.8733
1.8833
1.8933
1.9032
1.9132
1.9232
1.9332
1.9432
1.9532
1.9631
1.9731
1.9831
1.9931
2.0031
2.013
2.023
2.033
2.043
2.053
2.0629
2.0729
2.0829
2.0929
2.1029
2.1128
2.1228
2.1328
2.1428
2.1528
2.1628
2.1727
2.1827
2.1927
2.2027
2.2127
2.2226
2.2326
2.2426
2.2526
2.2626
2.2725
2.2825
2.2925
2.3025
2.3125
2.3224
2.3324
2.3424
2.3524
2.3624
2.3724
2.3823
2.3923
2.4023
2.4123
2.4223
2.4322
2.4422
2.4522
2.4622
2.4722
2.4821
2.4921
2.5021
2.5121
2.5221
2.532
2.542
2.552
2.562
2.572
2.5819
2.5919
2.6019
2.6119
2.6219
2.6319
2.6418
2.6518
2.6618
2.6718
2.6818
2.6917
2.7017
2.7117
2.7217
2.7317
2.7416
2.7516
2.7616
2.7716
2.7816
2.7916
2.8015
2.8115
2.8215
2.8315
2.8414
2.8514
2.8614
2.8714
2.8814
2.8914
2.9013
2.9113
2.9213
2.9313
2.9413
2.9513
2.9612
2.9712
2.9812
2.9912
