Wavelength (nm),"Mauna Iki, HI basaltic glass JB388B 150-250 µm"
310,0.034761
315,0.03498
320,0.035227
325,0.035601
330,0.035956
335,0.03625
340,0.036473
345,0.036678
350,0.036801
355,0.036869
360,0.036892
365,0.036941
370,0.037011
375,0.037099
380,0.037182
385,0.037281
390,0.037414
395,0.037591
400,0.037766
405,0.037943
410,0.038123
415,0.038217
420,0.038309
425,0.038473
430,0.038647
435,0.038809
440,0.039059
445,0.039414
450,0.039705
455,0.03997
460,0.04036
465,0.040755
470,0.04102
475,0.041337
480,0.04167
485,0.041922
490,0.042209
495,0.04257
500,0.042927
505,0.043323
510,0.043781
515,0.04425
520,0.044726
525,0.045202
530,0.045718
535,0.046189
540,0.04659
545,0.046976
550,0.047394
555,0.047885
560,0.048486
565,0.049063
570,0.04958
575,0.050003
580,0.050286
585,0.050456
590,0.050698
595,0.05103
600,0.051407
605,0.051925
610,0.05255
615,0.053308
620,0.054002
625,0.054627
630,0.054842
635,0.054936
640,0.054648
645,0.054567
650,0.05453
655,0.054573
660,0.054575
665,0.054687
670,0.05453
675,0.054316
680,0.054237
685,0.054175
690,0.054285
695,0.054509
700,0.054797
705,0.055086
710,0.05523
715,0.055213
720,0.055091
725,0.054903
730,0.054678
735,0.054584
740,0.054489
745,0.054361
750,0.054211
755,0.054083
760,0.053902
765,0.053675
770,0.053443
775,0.053217
780,0.05295
785,0.052688
790,0.052458
795,0.052203
800,0.051963
805,0.05176
810,0.051553
815,0.051327
820,0.051149
825,0.050942
830,0.050716
835,0.050498
840,0.050296
845,0.050073
850,0.049871
855,0.049647
860,0.049413
865,0.049194
870,0.048918
875,0.04874
880,0.048278
883.16,0.047927
883.46,0.047207
885.57,0.047795
885.87,0.048356
887.09,0.048918
888,0.048382
888.3,0.048254
888.61,0.047974
888.91,0.0485
889.22,0.048896
889.52,0.048961
889.83,0.04865
890.13,0.048665
890.44,0.04844
890.74,0.047935
891.05,0.047905
891.36,0.048325
891.66,0.04804
891.97,0.047182
892.28,0.046297
894.74,0.046666
895.05,0.047158
895.36,0.048329
896.6,0.048984
896.91,0.048935
897.22,0.048552
897.53,0.048106
897.84,0.047761
898.15,0.047003
898.46,0.04638
899.71,0.046451
900.02,0.046467
900.34,0.046613
900.65,0.047139
900.96,0.046971
901.28,0.046553
901.59,0.046185
904.74,0.046282
905.05,0.046796
905.37,0.046686
905.68,0.046608
906,0.046966
906.32,0.046502
908.86,0.046507
909.18,0.047224
909.5,0.04796
909.82,0.048633
910.78,0.048342
911.1,0.047659
911.42,0.046867
912.38,0.046438
912.7,0.046421
913.02,0.046119
914.31,0.046066
914.63,0.046527
914.96,0.046316
915.28,0.04606
915.6,0.046332
915.92,0.046332
916.25,0.046847
919.83,0.046136
921.46,0.046138
921.79,0.046381
922.12,0.046206
922.44,0.04673
922.77,0.04753
923.1,0.048135
925.08,0.047791
925.41,0.048391
925.74,0.046813
926.07,0.044278
926.4,0.04613
930.06,0.046137
933.07,0.04607
933.41,0.046069
936.1,0.046208
936.44,0.047387
936.78,0.047712
937.12,0.047043
937.46,0.046345
937.8,0.046067
938.14,0.045687
938.47,0.0452
938.81,0.045312
939.15,0.045569
939.5,0.045626
939.84,0.045688
940.18,0.045824
940.52,0.045671
940.86,0.045171
941.2,0.044808
941.54,0.044603
941.88,0.044853
942.23,0.04524
942.57,0.045636
942.91,0.045692
943.26,0.045612
943.6,0.045458
943.94,0.045577
944.29,0.04586
944.63,0.046396
944.98,0.046859
945.32,0.046973
945.66,0.046995
946.01,0.046927
946.36,0.046499
946.7,0.04644
947.05,0.04667
947.39,0.046611
947.74,0.046785
948.09,0.047151
948.43,0.04724
948.78,0.047268
949.13,0.047088
949.48,0.046626
949.82,0.046477
950.17,0.04658
950.52,0.046448
950.87,0.046429
951.22,0.046668
951.57,0.046735
951.92,0.046361
952.27,0.046297
952.62,0.046534
952.97,0.046608
953.32,0.04672
953.67,0.046943
954.02,0.046779
954.37,0.046342
954.72,0.046262
955.07,0.046227
955.42,0.046162
955.78,0.046145
956.13,0.046037
956.48,0.045687
956.84,0.04553
957.19,0.04574
957.54,0.046195
957.9,0.046849
958.25,0.047378
958.6,0.047769
958.96,0.047976
959.31,0.047682
959.67,0.047409
960.03,0.047406
960.38,0.047195
960.74,0.046694
961.09,0.046603
961.45,0.046727
961.81,0.04684
962.16,0.046921
962.52,0.046955
962.88,0.046928
963.24,0.046644
963.59,0.046349
963.95,0.046058
964.31,0.045858
964.67,0.045695
965.03,0.045606
965.39,0.045529
965.75,0.045534
966.11,0.045684
966.47,0.045963
966.83,0.046087
967.19,0.045992
967.55,0.045925
967.91,0.045952
968.27,0.04586
968.64,0.045666
969,0.045243
969.36,0.044993
969.72,0.04498
970.09,0.045002
970.45,0.04499
970.81,0.045459
971.18,0.046064
971.54,0.046122
971.9,0.046038
972.27,0.046319
972.63,0.046472
973,0.046332
973.36,0.046115
973.73,0.045839
974.1,0.045395
974.46,0.045001
974.83,0.044579
975.19,0.044498
975.56,0.045023
975.93,0.045531
976.3,0.045743
976.66,0.046042
977.03,0.046561
977.4,0.046505
977.77,0.046313
978.14,0.046358
978.51,0.046526
978.88,0.046294
979.25,0.046228
979.62,0.046521
979.99,0.04655
980.36,0.046095
980.73,0.045783
981.1,0.045582
981.47,0.045394
981.84,0.045374
982.22,0.045641
982.59,0.046153
982.96,0.046614
983.33,0.04664
983.71,0.046444
984.08,0.046188
984.45,0.045737
984.83,0.045125
985.2,0.044735
985.58,0.044822
985.95,0.045198
986.33,0.04563
986.7,0.045939
987.08,0.045875
987.45,0.045682
987.83,0.045426
988.21,0.045186
988.58,0.045233
988.96,0.045444
989.34,0.045374
989.72,0.045233
990.09,0.045098
990.47,0.044911
990.85,0.044958
991.23,0.045067
991.61,0.045055
991.99,0.044993
992.37,0.045025
992.75,0.045329
993.13,0.045682
993.51,0.045707
993.89,0.045743
994.27,0.04567
994.65,0.045219
995.04,0.044894
995.42,0.044815
995.8,0.044639
996.18,0.044648
996.57,0.044733
996.95,0.044896
997.33,0.045238
997.72,0.045613
998.1,0.045757
998.49,0.045907
998.87,0.045824
999.26,0.04539
999.64,0.044976
1000,0.044731
1000.4,0.044631
1000.8,0.044529
1001.2,0.044655
1001.6,0.044795
1002,0.0448
1002.3,0.044816
1002.7,0.044915
1003.1,0.044953
1003.5,0.044938
1003.9,0.044919
1004.3,0.044732
1004.7,0.044523
1005.1,0.044504
1005.5,0.044689
1005.8,0.045038
1006.2,0.045457
1006.6,0.045912
1007,0.045975
1007.4,0.045798
1007.8,0.045542
1008.2,0.045179
1008.6,0.044753
1009,0.044675
1009.4,0.044719
1009.8,0.04471
1010.2,0.044803
1010.6,0.045092
1010.9,0.04542
1011.3,0.04547
1011.7,0.045445
1012.1,0.045401
1012.5,0.045375
1012.9,0.045455
1013.3,0.045649
1013.7,0.045814
1014.1,0.045809
1014.5,0.045559
1014.9,0.045382
1015.3,0.045449
1015.7,0.04542
1016.1,0.045506
1016.5,0.045829
1016.9,0.045954
1017.3,0.045876
1017.7,0.045971
1018.1,0.046066
1018.5,0.045869
1018.9,0.045617
1019.3,0.045453
1019.7,0.045247
1020.1,0.045193
1020.5,0.045279
1020.9,0.045359
1021.3,0.045552
1021.7,0.045921
1022.1,0.046232
1022.5,0.046361
1022.9,0.046227
1023.3,0.045923
1023.7,0.04553
1024.1,0.044965
1024.5,0.044494
1024.9,0.044333
1025.3,0.044294
1025.7,0.044397
1026.2,0.044634
1026.6,0.044791
1027,0.044933
1027.4,0.045012
1027.8,0.044794
1028.2,0.044409
1028.6,0.044222
1029,0.044211
1029.4,0.044447
1029.8,0.0449
1030.2,0.045282
1030.6,0.045486
1031.1,0.045635
1031.5,0.04553
1031.9,0.045215
1032.3,0.044967
1032.7,0.044857
1033.1,0.044554
1033.5,0.044398
1033.9,0.044467
1034.3,0.04469
1034.8,0.044939
1035.2,0.045245
1035.6,0.045311
1036,0.0452
1036.4,0.045068
1036.8,0.044898
1037.2,0.044758
1037.7,0.044861
1038.1,0.044982
1038.5,0.044907
1038.9,0.044827
1039.3,0.044858
1039.7,0.044849
1040.2,0.044836
1040.6,0.045021
1041,0.045282
1041.4,0.045261
1041.8,0.044916
1042.2,0.044767
1042.7,0.044816
1043.1,0.044805
1043.5,0.04477
1043.9,0.044912
1044.3,0.045038
1044.8,0.044964
1045.2,0.044908
1045.6,0.045019
1046,0.045182
1046.5,0.045277
1046.9,0.04515
1047.3,0.045003
1047.7,0.04495
1048.1,0.044773
1048.6,0.044568
1049,0.044741
1049.4,0.044825
1049.8,0.044707
1050.3,0.044659
1050.7,0.044589
1051.1,0.044321
1051.5,0.044266
1052,0.044514
1052.4,0.044848
1052.8,0.044997
1053.3,0.045048
1053.7,0.045106
1054.1,0.045017
1054.5,0.04492
1055,0.045012
1055.4,0.045226
1055.8,0.045131
1056.3,0.044911
1056.7,0.044721
1057.1,0.04456
1057.6,0.044258
1058,0.044073
1058.4,0.044061
1058.9,0.044087
1059.3,0.044226
1059.7,0.044724
1060.2,0.045151
1060.6,0.045346
1061,0.045368
1061.5,0.045221
1061.9,0.044844
1062.3,0.044637
1062.8,0.044642
1063.2,0.044665
1063.6,0.044843
1064.1,0.045057
1064.5,0.045113
1064.9,0.045162
1065.4,0.045296
1065.8,0.045167
1066.3,0.044962
1066.7,0.044935
1067.1,0.044855
1067.6,0.044774
1068,0.044763
1068.5,0.044844
1068.9,0.044998
1069.3,0.04511
1069.8,0.04505
1070.2,0.044918
1070.7,0.044711
1071.1,0.044324
1071.5,0.044095
1072,0.044176
1072.4,0.044287
1072.9,0.0442
1073.3,0.044137
1073.8,0.044019
1074.2,0.043818
1074.7,0.043646
1075.1,0.043734
1075.5,0.044026
1076,0.044304
1076.4,0.044376
1076.9,0.04438
1077.3,0.044345
1077.8,0.044198
1078.2,0.044048
1078.7,0.044067
1079.1,0.044134
1079.6,0.044155
1080,0.04429
1080.5,0.044502
1080.9,0.044588
1081.4,0.044602
1081.8,0.044761
1082.3,0.044717
1082.7,0.044359
1083.2,0.044124
1083.6,0.044147
1084.1,0.044081
1084.5,0.043997
1085,0.044107
1085.5,0.044225
1085.9,0.044265
1086.4,0.044247
1086.8,0.044334
1087.3,0.044399
1087.7,0.044348
1088.2,0.044412
1088.6,0.044608
1089.1,0.044495
1089.6,0.044388
1090,0.044471
1090.5,0.044374
1090.9,0.044123
1091.4,0.044177
1091.9,0.044308
1092.3,0.044265
1092.8,0.044335
1093.2,0.0445
1093.7,0.044475
1094.2,0.044308
1094.6,0.044298
1095.1,0.044342
1095.5,0.044398
1096,0.044526
1096.5,0.04466
1096.9,0.044693
1097.4,0.04457
1097.9,0.044283
1098.3,0.043947
1098.8,0.043902
1099.3,0.043947
1099.7,0.04392
1100.2,0.044176
1100.7,0.044548
1101.1,0.044515
1101.6,0.044482
1102.1,0.044572
1102.5,0.044411
1103,0.044316
1103.5,0.044492
1103.9,0.044528
1104.4,0.04445
1104.9,0.044508
1105.4,0.044557
1105.8,0.044377
1106.3,0.044152
1106.8,0.044047
1107.2,0.044018
1107.7,0.043859
1108.2,0.04377
1108.7,0.043816
1109.1,0.043852
1109.6,0.04392
1110.1,0.044173
1110.6,0.044441
1111,0.044518
1111.5,0.044536
1112,0.044454
1112.5,0.044351
1113,0.044382
1113.4,0.04455
1113.9,0.044596
1114.4,0.044595
1114.9,0.044532
1115.3,0.044368
1115.8,0.044239
1116.3,0.044237
1116.8,0.044213
1117.3,0.04422
1117.8,0.044188
1118.2,0.044133
1118.7,0.044197
1119.2,0.044233
1119.7,0.044196
1120.2,0.044265
1120.7,0.044253
1121.1,0.044153
1121.6,0.044163
1122.1,0.04421
1122.6,0.044153
1123.1,0.044108
1123.6,0.044074
1124.1,0.043983
1124.5,0.043909
1125,0.044018
1125.5,0.044307
1126,0.044561
1126.5,0.044711
1127,0.044824
1127.5,0.044821
1128,0.044533
1128.5,0.044205
1128.9,0.044059
1129.4,0.043956
1129.9,0.043867
1130.4,0.043953
1130.9,0.044116
1131.4,0.04428
1131.9,0.044364
1132.4,0.044284
1132.9,0.04409
1133.4,0.043953
1133.9,0.043991
1134.4,0.044111
1134.9,0.044306
1135.4,0.044505
1135.9,0.044634
1136.4,0.044536
1136.9,0.044336
1137.4,0.044137
1137.9,0.044086
1138.4,0.044113
1138.9,0.044143
1139.4,0.044213
1139.9,0.04442
1140.4,0.044583
1140.9,0.044565
1141.4,0.04445
1141.9,0.044302
1142.4,0.044099
1142.9,0.043929
1143.4,0.043885
1143.9,0.043874
1144.4,0.043836
1144.9,0.043773
1145.4,0.043751
1145.9,0.043749
1146.4,0.043712
1146.9,0.043778
1147.4,0.043958
1147.9,0.044024
1148.5,0.044036
1149,0.044178
1149.5,0.044285
1150,0.04427
1150.5,0.04423
1151,0.044046
1151.5,0.04377
1152,0.043628
1152.5,0.043555
1153.1,0.043512
1153.6,0.043634
1154.1,0.04385
1154.6,0.043912
1155.1,0.043881
1155.6,0.043885
1156.1,0.043872
1156.7,0.043794
1157.2,0.043835
1157.7,0.043947
1158.2,0.044069
1158.7,0.044129
1159.2,0.044093
1159.8,0.044035
1160.3,0.044063
1160.8,0.043925
1161.3,0.043792
1161.8,0.04386
1162.4,0.043917
1162.9,0.043765
1163.4,0.043749
1163.9,0.043813
1164.5,0.043824
1165,0.043754
1165.5,0.043817
1166,0.043927
1166.5,0.043963
1167.1,0.044013
1167.6,0.044018
1168.1,0.043914
1168.7,0.043801
1169.2,0.043725
1169.7,0.043592
1170.2,0.043566
1170.8,0.043616
1171.3,0.04368
1171.8,0.043741
1172.4,0.043934
1172.9,0.044182
1173.4,0.044338
1173.9,0.044298
1174.5,0.044165
1175,0.043993
1175.5,0.043726
1176.1,0.043545
1176.6,0.043563
1177.1,0.043691
1177.7,0.043695
1178.2,0.04378
1178.7,0.043937
1179.3,0.044037
1179.8,0.044084
1180.4,0.044154
1180.9,0.044181
1181.4,0.044085
1182,0.044005
1182.5,0.044067
1183.1,0.044183
1183.6,0.044235
1184.1,0.044226
1184.7,0.044155
1185.2,0.043961
1185.8,0.043682
1186.3,0.043566
1186.8,0.043574
1187.4,0.043621
1187.9,0.043761
1188.5,0.043882
1189,0.043813
1189.6,0.04374
1190.1,0.043767
1190.7,0.04377
1191.2,0.0438
1191.8,0.043919
1192.3,0.044061
1192.9,0.044063
1193.4,0.044047
1194,0.044119
1194.5,0.04416
1195.1,0.044097
1195.6,0.043915
1196.2,0.0437
1196.7,0.043519
1197.3,0.043392
1197.8,0.043389
1198.4,0.04355
1198.9,0.043671
1199.5,0.043657
1200,0.043678
1200.6,0.043767
1201.1,0.043826
1201.7,0.043913
1202.3,0.044107
1202.8,0.044246
1203.4,0.044158
1203.9,0.044061
1204.5,0.044036
1205.1,0.043922
1205.6,0.043717
1206.2,0.043654
1206.7,0.0438
1207.3,0.043906
1207.9,0.043989
1208.4,0.044106
1209,0.044218
1209.6,0.044229
1210.1,0.044174
1210.7,0.044062
1211.2,0.043922
1211.8,0.043799
1212.4,0.043643
1212.9,0.043726
1213.5,0.0439
1214.1,0.044055
1214.7,0.044191
1215.2,0.044268
1215.8,0.044123
1216.4,0.044051
1216.9,0.044031
1217.5,0.04394
1218.1,0.043878
1218.6,0.043887
1219.2,0.04382
1219.8,0.043765
1220.4,0.043832
1220.9,0.043884
1221.5,0.04386
1222.1,0.043879
1222.7,0.04392
1223.3,0.043837
1223.8,0.043789
1224.4,0.043867
1225,0.043809
1225.6,0.043735
1226.1,0.043842
1226.7,0.043908
1227.3,0.043852
1227.9,0.043882
1228.5,0.043876
1229.1,0.043722
1229.6,0.043711
1230.2,0.043845
1230.8,0.043941
1231.4,0.04398
1232,0.044041
1232.6,0.044036
1233.1,0.043988
1233.7,0.044031
1234.3,0.044151
1234.9,0.044273
1235.5,0.04432
1236.1,0.044341
1236.7,0.044356
1237.3,0.044305
1237.9,0.04419
1238.4,0.04411
1239,0.044039
1239.6,0.043971
1240.2,0.043924
1240.8,0.043888
1241.4,0.043879
1242,0.04393
1242.6,0.043938
1243.2,0.043917
1243.8,0.043966
1244.4,0.043996
1245,0.043901
1245.6,0.043826
1246.2,0.043841
1246.8,0.043808
1247.4,0.043714
1248,0.04368
1248.6,0.043672
1249.2,0.043622
1249.8,0.043574
1250.4,0.043611
1251,0.043637
1251.6,0.043554
1252.2,0.043457
1252.8,0.043418
1253.4,0.043464
1254,0.043542
1254.6,0.043679
1255.2,0.043802
1255.8,0.043945
1256.5,0.043952
1257.1,0.043824
1257.7,0.043791
1258.3,0.043858
1258.9,0.043846
1259.5,0.043809
1260.1,0.043873
1260.7,0.043878
1261.3,0.04384
1262,0.043826
1262.6,0.043837
1263.2,0.043748
1263.8,0.043622
1264.4,0.043549
1265,0.043558
1265.7,0.043689
1266.3,0.043842
1266.9,0.043898
1267.5,0.043922
1268.1,0.04398
1268.8,0.043912
1269.4,0.043835
1270,0.04386
1270.6,0.043908
1271.2,0.043846
1271.9,0.043802
1272.5,0.043811
1273.1,0.043815
1273.7,0.043798
1274.4,0.043801
1275,0.043849
1275.6,0.043915
1276.3,0.043954
1276.9,0.043937
1277.5,0.043854
1278.1,0.04371
1278.8,0.043585
1279.4,0.043569
1280,0.043621
1280.7,0.04367
1281.3,0.043791
1281.9,0.043905
1282.6,0.044009
1283.2,0.04408
1283.8,0.04414
1284.5,0.044109
1285.1,0.04412
1285.7,0.044147
1286.4,0.044156
1287,0.044121
1287.7,0.044105
1288.3,0.044028
1288.9,0.043932
1289.6,0.043936
1290.2,0.043951
1290.9,0.043955
1291.5,0.043992
1292.2,0.043995
1292.8,0.043895
1293.4,0.043924
1294.1,0.043988
1294.7,0.044018
1295.4,0.044015
1296,0.044058
1296.7,0.044012
1297.3,0.043944
1298,0.043923
1298.6,0.04388
1299.3,0.043825
1299.9,0.043886
1300.6,0.044018
1301.2,0.044095
1301.9,0.044122
1302.5,0.044088
1303.2,0.043993
1303.9,0.043842
1304.5,0.043661
1305.2,0.043524
1305.8,0.0435
1306.5,0.043621
1307.1,0.043717
1307.8,0.043821
1308.5,0.043999
1309.1,0.044078
1309.8,0.044007
1310.4,0.043997
1311.1,0.044069
1311.8,0.044104
1312.4,0.044164
1313.1,0.044257
1313.8,0.044307
1314.4,0.044314
1315.1,0.044285
1315.8,0.044209
1316.4,0.044116
1317.1,0.044013
1317.8,0.043884
1318.4,0.043873
1319.1,0.043958
1319.8,0.043982
1320.5,0.043955
1321.1,0.043994
1321.8,0.043954
1322.5,0.043898
1323.2,0.043968
1323.8,0.044164
1324.5,0.044335
1325.2,0.044552
1325.9,0.044647
1326.5,0.04458
1327.2,0.044448
1327.9,0.044282
1328.6,0.044093
1329.3,0.043992
1329.9,0.043965
1330.6,0.043981
1331.3,0.043995
1332,0.04401
1332.7,0.04402
1333.4,0.044065
1334.1,0.044124
1334.7,0.044185
1335.4,0.044167
1336.1,0.044115
1336.8,0.044034
1337.5,0.043985
1338.2,0.043991
1338.9,0.044027
1339.6,0.044096
1340.3,0.044182
1341,0.044223
1341.6,0.04421
1342.3,0.044238
1343,0.044329
1343.7,0.044405
1344.4,0.04439
1345.1,0.044405
1345.8,0.044453
1346.5,0.044446
1347.2,0.044451
1347.9,0.044525
1348.6,0.044503
1349.3,0.044397
1350,0.044358
1350.7,0.044343
1351.4,0.044314
1352.1,0.044375
1352.9,0.044442
1353.6,0.044398
1354.3,0.044397
1355,0.044403
1355.7,0.044348
1356.4,0.044319
1357.1,0.044408
1357.8,0.044429
1358.5,0.044441
1359.2,0.044453
1360,0.044475
1360.7,0.044457
1361.4,0.044469
1362.1,0.044507
1362.8,0.044538
1363.5,0.044566
1364.2,0.044616
1365,0.044639
1365.7,0.044599
1366.4,0.044624
1367.1,0.044687
1367.8,0.044647
1368.6,0.044506
1369.3,0.044394
1370,0.044316
1370.7,0.04422
1371.5,0.04414
1372.2,0.044129
1372.9,0.044212
1373.6,0.044322
1374.4,0.044413
1375.1,0.044514
1375.8,0.044603
1376.6,0.044628
1377.3,0.04464
1378,0.044708
1378.8,0.044806
1379.5,0.044895
1380.2,0.044906
1381,0.044815
1381.7,0.044713
1382.4,0.044692
1383.2,0.044694
1383.9,0.044739
1384.7,0.044831
1385.4,0.044842
1386.1,0.044776
1386.9,0.044724
1387.6,0.044682
1388.4,0.044704
1389.1,0.044776
1389.8,0.044832
1390.6,0.044907
1391.3,0.044988
1392.1,0.044974
1392.8,0.044937
1393.6,0.044918
1394.3,0.044829
1395.1,0.044743
1395.8,0.044776
1396.6,0.044839
1397.3,0.044869
1398.1,0.044938
1398.8,0.045023
1399.6,0.045033
1400.4,0.045058
1401.1,0.045116
1401.9,0.045086
1402.6,0.045019
1403.4,0.044952
1404.2,0.044862
1404.9,0.044753
1405.7,0.044765
1406.4,0.044811
1407.2,0.044872
1408,0.044994
1408.7,0.045116
1409.5,0.045113
1410.3,0.045065
1411,0.045014
1411.8,0.044902
1412.6,0.044855
1413.3,0.044948
1414.1,0.045048
1414.9,0.045088
1415.7,0.045133
1416.4,0.045226
1417.2,0.045256
1418,0.045285
1418.8,0.045404
1419.5,0.045502
1420.3,0.045462
1421.1,0.045438
1421.9,0.045476
1422.6,0.045417
1423.4,0.045311
1424.2,0.045312
1425,0.045349
1425.8,0.045311
1426.6,0.045313
1427.3,0.045378
1428.1,0.045365
1428.9,0.045368
1429.7,0.045449
1430.5,0.045485
1431.3,0.045463
1432.1,0.045456
1432.9,0.045381
1433.7,0.045283
1434.5,0.045237
1435.3,0.045259
1436,0.045328
1436.8,0.045418
1437.6,0.045487
1438.4,0.045534
1439.2,0.045516
1440,0.045478
1440.8,0.045442
1441.6,0.045411
1442.4,0.045376
1443.2,0.045357
1444,0.045354
1444.9,0.045348
1445.7,0.045281
1446.5,0.045282
1447.3,0.045366
1448.1,0.04543
1448.9,0.045488
1449.7,0.045676
1450.5,0.045899
1451.3,0.045993
1452.1,0.045992
1453,0.046
1453.8,0.045937
1454.6,0.045794
1455.4,0.045769
1456.2,0.045849
1457,0.045924
1457.9,0.045989
1458.7,0.046081
1459.5,0.046122
1460.3,0.0461
1461.1,0.046093
1462,0.046163
1462.8,0.046224
1463.6,0.046228
1464.4,0.046215
1465.3,0.046171
1466.1,0.046103
1466.9,0.046019
1467.8,0.045968
1468.6,0.04597
1469.4,0.045977
1470.3,0.04593
1471.1,0.045875
1471.9,0.045868
1472.8,0.045893
1473.6,0.045952
1474.4,0.046047
1475.3,0.046171
1476.1,0.046273
1477,0.046312
1477.8,0.046336
1478.6,0.046357
1479.5,0.04635
1480.3,0.046301
1481.2,0.046264
1482,0.046196
1482.9,0.046118
1483.7,0.046081
1484.6,0.046084
1485.4,0.046095
1486.3,0.046135
1487.1,0.046153
1488,0.046145
1488.8,0.046155
1489.7,0.046177
1490.6,0.046215
1491.4,0.046306
1492.3,0.046356
1493.1,0.046356
1494,0.046365
1494.8,0.046347
1495.7,0.046293
1496.6,0.046249
1497.4,0.04624
1498.3,0.046307
1499.2,0.046393
1500,0.046486
1500.9,0.046565
1501.8,0.046644
1502.6,0.046597
1503.5,0.046474
1504.4,0.046385
1505.3,0.046346
1506.1,0.046302
1507,0.046346
1507.9,0.046434
1508.8,0.046505
1509.6,0.046572
1510.5,0.046646
1511.4,0.046651
1512.3,0.046683
1513.2,0.046696
1514.1,0.046697
1514.9,0.046712
1515.8,0.046767
1516.7,0.046786
1517.6,0.046777
1518.5,0.046785
1519.4,0.046816
1520.3,0.046848
1521.2,0.046852
1522.1,0.046837
1523,0.046846
1523.8,0.046881
1524.7,0.046898
1525.6,0.046913
1526.5,0.046955
1527.4,0.046916
1528.3,0.046834
1529.2,0.046781
1530.1,0.046774
1531,0.046814
1532,0.046908
1532.9,0.046984
1533.8,0.046971
1534.7,0.046953
1535.6,0.046965
1536.5,0.046993
1537.4,0.047035
1538.3,0.047102
1539.2,0.047129
1540.1,0.047126
1541.1,0.047143
1542,0.047167
1542.9,0.047171
1543.8,0.047177
1544.7,0.047158
1545.7,0.047068
1546.6,0.046964
1547.5,0.046987
1548.4,0.047037
1549.4,0.047031
1550.3,0.047002
1551.2,0.046972
1552.1,0.046899
1553.1,0.046876
1554,0.046985
1554.9,0.047094
1555.9,0.047123
1556.8,0.047182
1557.7,0.047237
1558.7,0.047184
1559.6,0.047083
1560.5,0.047005
1561.5,0.046877
1562.4,0.046749
1563.4,0.046718
1564.3,0.046791
1565.3,0.046901
1566.2,0.047019
1567.2,0.047139
1568.1,0.047194
1569,0.047238
1570,0.04728
1570.9,0.047302
1571.9,0.047237
1572.9,0.047192
1573.8,0.047151
1574.8,0.047115
1575.7,0.047118
1576.7,0.047119
1577.6,0.047082
1578.6,0.047044
1579.6,0.047
1580.5,0.046953
1581.5,0.046972
1582.5,0.047006
1583.4,0.047091
1584.4,0.047191
1585.4,0.04721
1586.3,0.047175
1587.3,0.047118
1588.3,0.046993
1589.3,0.046925
1590.2,0.046957
1591.2,0.046988
1592.2,0.047016
1593.2,0.047087
1594.1,0.047129
1595.1,0.047073
1596.1,0.047017
1597.1,0.046968
1598.1,0.04689
1599.1,0.046857
1600,0.046923
1601,0.046965
1602,0.047043
1603,0.047169
1604,0.047145
1605,0.047101
1606,0.047143
1607,0.047181
1608,0.04715
1609,0.04718
1610,0.047228
1611,0.04724
1612,0.047232
1613,0.047172
1614,0.047088
1615,0.047014
1616,0.047027
1617,0.047039
1618,0.047066
1619,0.047123
1620,0.04716
1621.1,0.047153
1622.1,0.047213
1623.1,0.04731
1624.1,0.047349
1625.1,0.047304
1626.1,0.047246
1627.2,0.047158
1628.2,0.0471
1629.2,0.047134
1630.2,0.047188
1631.3,0.047174
1632.3,0.047148
1633.3,0.047085
1634.3,0.046998
1635.4,0.046909
1636.4,0.046891
1637.4,0.046912
1638.5,0.046932
1639.5,0.046956
1640.5,0.046985
1641.6,0.046989
1642.6,0.046962
1643.7,0.047008
1644.7,0.047053
1645.8,0.047048
1646.8,0.046996
1647.8,0.046937
1648.9,0.046845
1649.9,0.046815
1651,0.046817
1652.1,0.046872
1653.1,0.046913
1654.2,0.046907
1655.2,0.046897
1656.3,0.046988
1657.3,0.047034
1658.4,0.047042
1659.5,0.047084
1660.5,0.047045
1661.6,0.046932
1662.6,0.046883
1663.7,0.046889
1664.8,0.046911
1665.9,0.046959
1666.9,0.046952
1668,0.046904
1669.1,0.046908
1670.1,0.046896
1671.2,0.046826
1672.3,0.046808
1673.4,0.046807
1674.5,0.046713
1675.5,0.046612
1676.6,0.046593
1677.7,0.046589
1678.8,0.046614
1679.9,0.046724
1681,0.046811
1682.1,0.046839
1683.2,0.046902
1684.3,0.04693
1685.3,0.046866
1686.4,0.046806
1687.5,0.046752
1688.6,0.046663
1689.7,0.046565
1690.8,0.046503
1692,0.04647
1693.1,0.046458
1694.2,0.046476
1695.3,0.046501
1696.4,0.046511
1697.5,0.046523
1698.6,0.04655
1699.7,0.046554
1700.8,0.046561
1701.9,0.046578
1703.1,0.046603
1704.2,0.046592
1705.3,0.046555
1706.4,0.046536
1707.6,0.046559
1708.7,0.046547
1709.8,0.046535
1710.9,0.046531
1712.1,0.0465
1713.2,0.04646
1714.3,0.046501
1715.5,0.046571
1716.6,0.04663
1717.7,0.046664
1718.9,0.046603
1720,0.04648
1721.2,0.046379
1722.3,0.046299
1723.4,0.04625
1724.6,0.046278
1725.7,0.046325
1726.9,0.046371
1728,0.046432
1729.2,0.04647
1730.4,0.046484
1731.5,0.046517
1732.7,0.046507
1733.8,0.046452
1735,0.046424
1736.1,0.046417
1737.3,0.046373
1738.5,0.046335
1739.6,0.046309
1740.8,0.046318
1742,0.046335
1743.2,0.046321
1744.3,0.046353
1745.5,0.04641
1746.7,0.046423
1747.9,0.046415
1749,0.046408
1750.2,0.046376
1751.4,0.046353
1752.6,0.046359
1753.8,0.046375
1755,0.046365
1756.1,0.04628
1757.3,0.046207
1758.5,0.046136
1759.7,0.04603
1760.9,0.046021
1762.1,0.046183
1763.3,0.046322
1764.5,0.046371
1765.7,0.04639
1766.9,0.046365
1768.1,0.046269
1769.3,0.046152
1770.5,0.046083
1771.7,0.046103
1773,0.046146
1774.2,0.046178
1775.4,0.046228
1776.6,0.046279
1777.8,0.046286
1779,0.04629
1780.3,0.046287
1781.5,0.046311
1782.7,0.046371
1783.9,0.04639
1785.2,0.046341
1786.4,0.046264
1787.6,0.046209
1788.9,0.046207
1790.1,0.046256
1791.3,0.046338
1792.6,0.046375
1793.8,0.046319
1795.1,0.046235
1796.3,0.046203
1797.6,0.046195
1798.8,0.046223
1800,0.046271
1801.3,0.046296
1802.6,0.046224
1803.8,0.04614
1805.1,0.046124
1806.3,0.046115
1807.6,0.04608
1808.8,0.046112
1810.1,0.046181
1811.4,0.046189
1812.6,0.0462
1813.9,0.046228
1815.2,0.04623
1816.4,0.04622
1817.7,0.046223
1819,0.04619
1820.3,0.046154
1821.6,0.046209
1822.8,0.046216
1824.1,0.046195
1825.4,0.046231
1826.7,0.046279
1828,0.04626
1829.3,0.046224
1830.6,0.046208
1831.8,0.046269
1833.1,0.046302
1834.4,0.046281
1835.7,0.046321
1837,0.046365
1838.3,0.046269
1839.7,0.046155
1841,0.046091
1842.3,0.046063
1843.6,0.046042
1844.9,0.046064
1846.2,0.04613
1847.5,0.046163
1848.8,0.046164
1850.2,0.046215
1851.5,0.046254
1852.8,0.046207
1854.1,0.046189
1855.5,0.046174
1856.8,0.04611
1858.1,0.046099
1859.4,0.046152
1860.8,0.046206
1862.1,0.046232
1863.5,0.046269
1864.8,0.046303
1866.1,0.046337
1867.5,0.04634
1868.8,0.046355
1870.2,0.046331
1871.5,0.046305
1872.9,0.04631
1874.2,0.046314
1875.6,0.046259
1876.9,0.046196
1878.3,0.046161
1879.7,0.046151
1881,0.046169
1882.4,0.046223
1883.8,0.046283
1885.1,0.046273
1886.5,0.046221
1887.9,0.046219
1889.3,0.046235
1890.6,0.046259
1892,0.046279
1893.4,0.046302
1894.8,0.046309
1896.2,0.046292
1897.6,0.046277
1899,0.046346
1900.3,0.046392
1901.7,0.046408
1903.1,0.046457
1904.5,0.046527
1905.9,0.04654
1907.3,0.046569
1908.7,0.046596
1910.1,0.046599
1911.6,0.0466
1913,0.046628
1914.4,0.046637
1915.8,0.046653
1917.2,0.046705
1918.6,0.046738
1920,0.046736
1921.5,0.046764
1922.9,0.046784
1924.3,0.046747
1925.8,0.046691
1927.2,0.046623
1928.6,0.046534
1930.1,0.046439
1931.5,0.046433
1932.9,0.046513
1934.4,0.046581
1935.8,0.046607
1937.3,0.046673
1938.7,0.046683
1940.2,0.046626
1941.6,0.046616
1943.1,0.046652
1944.5,0.046593
1946,0.046554
1947.5,0.046573
1948.9,0.046603
1950.4,0.046599
1951.9,0.046647
1953.3,0.04668
1954.8,0.046723
1956.3,0.046753
1957.8,0.046829
1959.2,0.046915
1960.7,0.04694
1962.2,0.046927
1963.7,0.046952
1965.2,0.046952
1966.7,0.04691
1968.2,0.046949
1969.7,0.047016
1971.2,0.047049
1972.7,0.047042
1974.2,0.047069
1975.7,0.047136
1977.2,0.047177
1978.7,0.047197
1980.2,0.047241
1981.7,0.047292
1983.2,0.04727
1984.7,0.04721
1986.3,0.047195
1987.8,0.047262
1989.3,0.047336
1990.8,0.0474
1992.4,0.047504
1993.9,0.047613
1995.4,0.047673
1997,0.047746
1998.5,0.047807
2000.1,0.047834
2001.6,0.047803
2003.1,0.047782
2004.7,0.047763
2006.2,0.04775
2007.8,0.047755
2009.4,0.047748
2010.9,0.04776
2012.5,0.047716
2014,0.047679
2015.6,0.047689
2017.2,0.047792
2018.7,0.047914
2020.3,0.047999
2021.9,0.048099
2023.5,0.048152
2025.1,0.048109
2026.6,0.04807
2028.2,0.048123
2029.8,0.04817
2031.4,0.048213
2033,0.048255
2034.6,0.048239
2036.2,0.048226
2037.8,0.048238
2039.4,0.048305
2041,0.048398
2042.6,0.048471
2044.2,0.048483
2045.8,0.048476
2047.4,0.048476
2049.1,0.048504
2050.7,0.048544
2052.3,0.048618
2053.9,0.048696
2055.6,0.048712
2057.2,0.048736
2058.8,0.048792
2060.5,0.048882
2062.1,0.049023
2063.7,0.049143
2065.4,0.049171
2067,0.049208
2068.7,0.049247
2070.3,0.049215
2072,0.049228
2073.7,0.049332
2075.3,0.049394
2077,0.049381
2078.6,0.049418
2080.3,0.049445
2082,0.04937
2083.7,0.049303
2085.3,0.049308
2087,0.049295
2088.7,0.049277
2090.4,0.049353
2092.1,0.049471
2093.8,0.049569
2095.4,0.049641
2097.1,0.049749
2098.8,0.049887
2100.5,0.049987
2102.2,0.050028
2104,0.050134
2105.7,0.050229
2107.4,0.050239
2109.1,0.050253
2110.8,0.050291
2112.5,0.050283
2114.2,0.050306
2116,0.050409
2117.7,0.050514
2119.4,0.05065
2121.2,0.050784
2122.9,0.050861
2124.6,0.050905
2126.4,0.050972
2128.1,0.051037
2129.9,0.0511
2131.6,0.051175
2133.4,0.05124
2135.1,0.051285
2136.9,0.05133
2138.7,0.051367
2140.4,0.05139
2142.2,0.051419
2144,0.051449
2145.8,0.05147
2147.5,0.051526
2149.3,0.051588
2151.1,0.051669
2152.9,0.051734
2154.7,0.051796
2156.5,0.051842
2158.3,0.051898
2160.1,0.051958
2161.9,0.052064
2163.7,0.052172
2165.5,0.052277
2167.3,0.052388
2169.1,0.052489
2170.9,0.052508
2172.7,0.052519
2174.6,0.052545
2176.4,0.052565
2178.2,0.052587
2180,0.052696
2181.9,0.052867
2183.7,0.053031
2185.6,0.053169
2187.4,0.053266
2189.2,0.05333
2191.1,0.053347
2193,0.053353
2194.8,0.053379
2196.7,0.053421
2198.5,0.05349
2200.4,0.053597
2202.3,0.053753
2204.1,0.053874
2206,0.053923
2207.9,0.053918
2209.8,0.053897
2211.7,0.053855
2213.6,0.053887
2215.4,0.054041
2217.3,0.054232
2219.2,0.054412
2221.1,0.054531
2223,0.054543
2225,0.054523
2226.9,0.054547
2228.8,0.054551
2230.7,0.05457
2232.6,0.054698
2234.5,0.054856
2236.5,0.054962
2238.4,0.055088
2240.3,0.055228
2242.3,0.05534
2244.2,0.055449
2246.2,0.055559
2248.1,0.055645
2250.1,0.055786
2252,0.055916
2254,0.056017
2255.9,0.056122
2257.9,0.056234
2259.9,0.056322
2261.8,0.056418
2263.8,0.056482
2265.8,0.056523
2267.8,0.056584
2269.8,0.056632
2271.8,0.05667
2273.7,0.056747
2275.7,0.056884
2277.7,0.057014
2279.7,0.057177
2281.7,0.057344
2283.8,0.05749
2285.8,0.057612
2287.8,0.057695
2289.8,0.057734
2291.8,0.057777
2293.9,0.057786
2295.9,0.057815
2297.9,0.057931
2300,0.058034
2302,0.058101
2304.1,0.058211
2306.1,0.058279
2308.2,0.058312
2310.2,0.058369
2312.3,0.058434
2314.3,0.058505
2316.4,0.058606
2318.5,0.058734
2320.6,0.058885
2322.6,0.059061
2324.7,0.059259
2326.8,0.059483
2328.9,0.05961
2331,0.059658
2333.1,0.059758
2335.2,0.05987
2337.3,0.059928
2339.4,0.060085
2341.5,0.060275
2343.6,0.060378
2345.8,0.060477
2347.9,0.060633
2350,0.06072
2352.1,0.060815
2354.3,0.060988
2356.4,0.061125
2358.6,0.061145
2360.7,0.06115
2362.9,0.061205
2365,0.061262
2367.2,0.061289
2369.3,0.061412
2371.5,0.061639
2373.7,0.061875
2375.9,0.062051
2378,0.062183
2380.2,0.062247
2382.4,0.062268
2384.6,0.062276
2386.8,0.062337
2389,0.062496
2391.2,0.062682
2393.4,0.062811
2395.6,0.062878
2397.8,0.062929
2400.1,0.063003
2402.3,0.063104
2404.5,0.063265
2406.7,0.063488
2409,0.063644
2411.2,0.063694
2413.5,0.0638
2415.7,0.063948
2418,0.064048
2420.2,0.064151
2422.5,0.064271
2424.8,0.064339
2427,0.064399
2429.3,0.06449
2431.6,0.064614
2433.9,0.064765
2436.2,0.064896
2438.4,0.064978
2440.7,0.065049
2443,0.065127
2445.3,0.06521
2447.7,0.065323
2450,0.065405
2452.3,0.065445
2454.6,0.065527
2456.9,0.065655
2459.3,0.065769
2461.6,0.065925
2463.9,0.066115
2466.3,0.066226
2468.6,0.066266
2471,0.066303
2473.3,0.06639
2475.7,0.066542
2478.1,0.066719
2480.4,0.066931
2482.8,0.067107
2485.2,0.067195
2487.6,0.067234
2490,0.067268
2492.4,0.067331
2494.8,0.067449
2497.2,0.067599
2499.6,0.067778
2502,0.067952
2504.4,0.068008
2506.8,0.068069
2509.3,0.068172
2511.7,0.068226
2514.1,0.068305
2516.6,0.068497
2519,0.068639
2521.5,0.068721
2523.9,0.068863
2526.4,0.068979
2528.8,0.069012
2531.3,0.069043
2533.8,0.069079
2536.3,0.069103
2538.8,0.069229
2541.2,0.069433
2543.7,0.069605
2546.2,0.069775
2548.7,0.06995
2551.2,0.07003
2553.8,0.070082
2556.3,0.070204
2558.8,0.070306
2561.3,0.070358
2563.9,0.070425
2566.4,0.07049
2568.9,0.070508
2571.5,0.070572
2574,0.070706
2576.6,0.070808
2579.2,0.070906
2581.7,0.071063
2584.3,0.071194
2586.9,0.071226
2589.5,0.071273
2592.1,0.071389
2594.7,0.071474
2597.3,0.071533
2599.9,0.071639
2602.5,0.071749
2605.1,0.07179
2607.7,0.071865
2610.3,0.071966
2613,0.072047
2615.6,0.072088
2618.2,0.072143
2620.9,0.072184
2623.6,0.072256
2626.2,0.072372
2628.9,0.07256
2631.5,0.072714
2634.2,0.072813
2636.9,0.072901
2639.6,0.072977
2642.3,0.072996
2645,0.072997
2647.7,0.073016
2650.4,0.073026
2653.1,0.073002
2655.8,0.072987
2658.5,0.073081
2661.3,0.073241
2664,0.073397
2666.7,0.073583
2669.5,0.07376
2672.2,0.07387
2675,0.073938
2677.8,0.073946
2680.5,0.073918
2683.3,0.073958
2686.1,0.074008
2688.9,0.07407
2691.7,0.074238
2694.5,0.074355
2697.3,0.074323
2700.1,0.074313
2700.1,0.074174
2701.5,0.07382
2702.9,0.073705
2704.3,0.073964
2705.7,0.074096
2707.1,0.074213
2708.5,0.0746
2710,0.074675
2711.4,0.074262
2712.8,0.074019
2714.2,0.073882
2715.6,0.073688
2717.1,0.07375
2718.5,0.073966
2719.9,0.07372
2721.3,0.073315
2722.8,0.072984
2724.2,0.0728
2725.6,0.072618
2727.1,0.072637
2728.5,0.072909
2729.9,0.072969
2731.4,0.072746
2732.8,0.072538
2734.2,0.072449
2735.7,0.072393
2737.1,0.072339
2738.6,0.072062
2740,0.071751
2741.5,0.071175
2742.9,0.070336
2744.4,0.069726
2745.8,0.069511
2747.3,0.069356
2748.7,0.069597
2750.2,0.06997
2751.7,0.070061
2753.1,0.069603
2754.6,0.069041
2756.1,0.068656
2757.5,0.06842
2759,0.068417
2760.5,0.068596
2761.9,0.068626
2763.4,0.068474
2764.9,0.068113
2766.3,0.067379
2767.8,0.066893
2769.3,0.066785
2770.8,0.066753
2772.3,0.066996
2773.7,0.067231
2775.2,0.067361
2776.7,0.067752
2778.2,0.067998
2779.7,0.067565
2781.2,0.067451
2782.7,0.06762
2784.2,0.067346
2785.7,0.066882
2787.2,0.066926
2788.7,0.067118
2790.2,0.067083
2791.7,0.067038
2793.2,0.067162
2794.7,0.067269
2796.2,0.067093
2797.7,0.06672
2799.2,0.066341
2800.7,0.065933
2802.2,0.065545
2803.8,0.065634
2805.3,0.065935
2806.8,0.06608
2808.3,0.06605
2809.8,0.066022
2811.4,0.065802
2812.9,0.065679
2814.4,0.065663
2815.9,0.065777
2817.5,0.066076
2819,0.066191
2820.5,0.066045
2822.1,0.065996
2823.6,0.06642
2825.1,0.066814
2826.7,0.066841
2828.2,0.067003
2829.8,0.067479
2831.3,0.067493
2832.9,0.067256
2834.4,0.067318
2836,0.067325
2837.5,0.066876
2839.1,0.066529
2840.6,0.066457
2842.2,0.066368
2843.7,0.066245
2845.3,0.066407
2846.9,0.066599
2848.4,0.066338
2850,0.066249
2851.6,0.066499
2853.1,0.066551
2854.7,0.066533
2856.3,0.066771
2857.8,0.066963
2859.4,0.066878
2861,0.066774
2862.6,0.066696
2864.2,0.066529
2865.7,0.066427
2867.3,0.066404
2868.9,0.066398
2870.5,0.06627
2872.1,0.066266
2873.7,0.066223
2875.3,0.066273
2876.9,0.06652
2878.5,0.066785
2880.1,0.06678
2881.7,0.066674
2883.3,0.066441
2884.9,0.066033
2886.5,0.065878
2888.1,0.066247
2889.7,0.066549
2891.3,0.066853
2892.9,0.067314
2894.5,0.067453
2896.2,0.067311
2897.8,0.06722
2899.4,0.067055
2901,0.066854
2902.7,0.066965
2904.3,0.066933
2905.9,0.066824
2907.5,0.066858
2909.2,0.066863
2910.8,0.066711
2912.4,0.06682
2914.1,0.067043
2915.7,0.067029
2917.4,0.067176
2919,0.067584
2920.6,0.067736
2922.3,0.067739
2923.9,0.067741
2925.6,0.067505
2927.2,0.067004
2928.9,0.066599
2930.5,0.066449
2932.2,0.066463
2933.9,0.06656
2935.5,0.066442
2937.2,0.066179
2938.9,0.06614
2940.5,0.066246
2942.2,0.066232
2943.9,0.066652
2945.5,0.067322
2947.2,0.067648
2948.9,0.067746
2950.6,0.067929
2952.2,0.067961
2953.9,0.06798
2955.6,0.067976
2957.3,0.067998
2959,0.068026
2960.7,0.067968
2962.4,0.067944
2964.1,0.067958
2965.8,0.068084
2967.4,0.068234
2969.1,0.068312
2970.9,0.068185
2972.6,0.06812
2974.3,0.067902
2976,0.067628
2977.7,0.067479
2979.4,0.067342
2981.1,0.067275
2982.8,0.067325
2984.5,0.067466
2986.3,0.067849
2988,0.06825
2989.7,0.068451
2991.4,0.068592
2993.1,0.068514
2994.9,0.06817
2996.6,0.067972
2998.3,0.06784
3000.1,0.067812
3001.8,0.067932
3003.6,0.068064
3005.3,0.068143
3007,0.068264
3008.8,0.068413
3010.5,0.068677
3012.3,0.068841
3014,0.068919
3015.8,0.068874
3017.5,0.068657
3019.3,0.068599
3021.1,0.068793
3022.8,0.068956
3024.6,0.069184
3026.3,0.069424
3028.1,0.069527
3029.9,0.069573
3031.7,0.069516
3033.4,0.069356
3035.2,0.06936
3037,0.069408
3038.8,0.069335
3040.5,0.069551
3042.3,0.070007
3044.1,0.070413
3045.9,0.070478
3047.7,0.070445
3049.5,0.07035
3051.3,0.070157
3053.1,0.069768
3054.9,0.069437
3056.7,0.069328
3058.5,0.06919
3060.3,0.069044
3062.1,0.069078
3063.9,0.06927
3065.7,0.069495
3067.5,0.069709
3069.4,0.069792
3071.2,0.069754
3073,0.069833
3074.8,0.069905
3076.6,0.069885
3078.5,0.07007
3080.3,0.070436
3082.1,0.070406
3084,0.070167
3085.8,0.070163
3087.6,0.070202
3089.5,0.070197
3091.3,0.070335
3093.2,0.070613
3095,0.070852
3096.9,0.070894
3098.7,0.070788
3100.6,0.070661
3102.4,0.070512
3104.3,0.070423
3106.1,0.070422
3108,0.070456
3109.9,0.070715
3111.7,0.07097
3113.6,0.0711
3115.5,0.071046
3117.3,0.070806
3119.2,0.070446
3121.1,0.070372
3123,0.070308
3124.9,0.070171
3126.7,0.070379
3128.6,0.0707
3130.5,0.0705
3132.4,0.070219
3134.3,0.070272
3136.2,0.070385
3138.1,0.070596
3140,0.071021
3141.9,0.071353
3143.8,0.071576
3145.7,0.071681
3147.6,0.071604
3149.5,0.0717
3151.4,0.072008
3153.4,0.072165
3155.3,0.07224
3157.2,0.072345
3159.1,0.072199
3161.1,0.071934
3163,0.071845
3164.9,0.071653
3166.9,0.071523
3168.8,0.07168
3170.7,0.0718
3172.7,0.071945
3174.6,0.072403
3176.6,0.072737
3178.5,0.072808
3180.5,0.072991
3182.4,0.073028
3184.4,0.072829
3186.3,0.072743
3188.3,0.072695
3190.2,0.072554
3192.2,0.072516
3194.2,0.072592
3196.1,0.072533
3198.1,0.072537
3200.1,0.072651
3202.1,0.072619
3204,0.072554
3206,0.072589
3208,0.072532
3210,0.072369
3212,0.072329
3214,0.072428
3216,0.072629
3218,0.072826
3220,0.073099
3222,0.073421
3224,0.073424
3226,0.073202
3228,0.073141
3230,0.073178
3232,0.073235
3234,0.073489
3236,0.07373
3238.1,0.073771
3240.1,0.073711
3242.1,0.073706
3244.1,0.073642
3246.2,0.073559
3248.2,0.073478
3250.2,0.073401
3252.3,0.073257
3254.3,0.073238
3256.4,0.073352
3258.4,0.073467
3260.5,0.073634
3262.5,0.073936
3264.6,0.074052
3266.6,0.074048
3268.7,0.074152
3270.7,0.074115
3272.8,0.073941
3274.9,0.073945
3276.9,0.074087
3279,0.074344
3281.1,0.074525
3283.2,0.074553
3285.3,0.074582
3287.3,0.07464
3289.4,0.074493
3291.5,0.074539
3293.6,0.074775
3295.7,0.074747
3297.8,0.074582
3299.9,0.074474
3302,0.074298
3304.1,0.074147
3306.2,0.074165
3308.3,0.074303
3310.4,0.07444
3312.5,0.074611
3314.7,0.074605
3316.8,0.074573
3318.9,0.074637
3321,0.074703
3323.2,0.074621
3325.3,0.074493
3327.4,0.074453
3329.6,0.074427
3331.7,0.074362
3333.8,0.074414
3336,0.074794
3338.1,0.075088
3340.3,0.075112
3342.4,0.075159
3344.6,0.075259
3346.8,0.075295
3348.9,0.075581
3351.1,0.075903
3353.3,0.076243
3355.4,0.076712
3357.6,0.076927
3359.8,0.07673
3362,0.076578
3364.1,0.076449
3366.3,0.076072
3368.5,0.075772
3370.7,0.07572
3372.9,0.075684
3375.1,0.075466
3377.3,0.075339
3379.5,0.075446
3381.7,0.075677
3383.9,0.075775
3386.1,0.075888
3388.3,0.076104
3390.5,0.076233
3392.8,0.076107
3395,0.076063
3397.2,0.076345
3399.4,0.076546
3401.7,0.076597
3403.9,0.076807
3406.1,0.07712
3408.4,0.076955
3410.6,0.076722
3412.9,0.076618
3415.1,0.076503
3417.4,0.076512
3419.6,0.076758
3421.9,0.077056
3424.1,0.077355
3426.4,0.077446
3428.7,0.077269
3430.9,0.077093
3433.2,0.076888
3435.5,0.076605
3437.8,0.076523
3440,0.076636
3442.3,0.076828
3444.6,0.077041
3446.9,0.077236
3449.2,0.077331
3451.5,0.077552
3453.8,0.077854
3456.1,0.077976
3458.4,0.07813
3460.7,0.07838
3463,0.078275
3465.3,0.078005
3467.6,0.077955
3470,0.077966
3472.3,0.077903
3474.6,0.077958
3477,0.07805
3479.3,0.078043
3481.6,0.07798
3484,0.078032
3486.3,0.078149
3488.7,0.078378
3491,0.078607
3493.4,0.078725
3495.7,0.078836
3498.1,0.078968
3500.4,0.078967
3502.8,0.078996
3505.2,0.079065
3507.5,0.07903
3509.9,0.078946
3512.3,0.07901
3514.7,0.079123
3517.1,0.079281
3519.4,0.079407
3521.8,0.079532
3524.2,0.07947
3526.6,0.079319
3529,0.079326
3531.4,0.079395
3533.8,0.079406
3536.2,0.079424
3538.7,0.079607
3541.1,0.079526
3543.5,0.07933
3545.9,0.079262
3548.3,0.079304
3550.8,0.079347
3553.2,0.07956
3555.6,0.079777
3558.1,0.079817
3560.5,0.079914
3563,0.079995
3565.4,0.079894
3567.9,0.079867
3570.3,0.080008
3572.8,0.080168
3575.3,0.080285
3577.7,0.080459
3580.2,0.080697
3582.7,0.080903
3585.2,0.080993
3587.6,0.080924
3590.1,0.080889
3592.6,0.080849
3595.1,0.080895
3597.6,0.08107
3600.1,0.081195
3602.6,0.081247
3605.1,0.081395
3607.6,0.081505
3610.1,0.081519
3612.6,0.081662
3615.2,0.081886
3617.7,0.082073
3620.2,0.082213
3622.7,0.082353
3625.3,0.082509
3627.8,0.082563
3630.3,0.082559
3632.9,0.082482
3635.4,0.082333
3638,0.082198
3640.5,0.082231
3643.1,0.082246
3645.7,0.082283
3648.2,0.082366
3650.8,0.082443
3653.4,0.082406
3655.9,0.082278
3658.5,0.082202
3661.1,0.082172
3663.7,0.082238
3666.3,0.082486
3668.9,0.082763
3671.5,0.082835
3674.1,0.082829
3676.7,0.082806
3679.3,0.082677
3681.9,0.082651
3684.5,0.082826
3687.2,0.08304
3689.8,0.083249
3692.4,0.083477
3695,0.083703
3697.7,0.083929
3700.3,0.084157
3703,0.084265
3705.6,0.084316
3708.3,0.084321
3710.9,0.08426
3713.6,0.084218
3716.2,0.084259
3718.9,0.084278
3721.6,0.084186
3724.2,0.084057
3726.9,0.083927
3729.6,0.083885
3732.3,0.083974
3735,0.084196
3737.7,0.084513
3740.4,0.084891
3743.1,0.085115
3745.8,0.085142
3748.5,0.085089
3751.2,0.085057
3753.9,0.085071
3756.6,0.085221
3759.3,0.085458
3762.1,0.085652
3764.8,0.085763
3767.5,0.085744
3770.3,0.085634
3773,0.085561
3775.8,0.085633
3778.5,0.085645
3781.3,0.085534
3784,0.085405
3786.8,0.085442
3789.6,0.085528
3792.3,0.085539
3795.1,0.085593
3797.9,0.08573
3800.7,0.085743
3803.5,0.085581
3806.3,0.085533
3809.1,0.085662
3811.9,0.085779
3814.7,0.085843
3817.5,0.085943
3820.3,0.086043
3823.1,0.086048
3825.9,0.085982
3828.8,0.086001
3831.6,0.086137
3834.4,0.086269
3837.3,0.086357
3840.1,0.086455
3842.9,0.086431
3845.8,0.086234
3848.7,0.086129
3851.5,0.086199
3854.4,0.086254
3857.2,0.086389
3860.1,0.086632
3863,0.086718
3865.9,0.086715
3868.8,0.086823
3871.6,0.086835
3874.5,0.08681
3877.4,0.086978
3880.3,0.087214
3883.2,0.087302
3886.2,0.087383
3889.1,0.087441
3892,0.087382
3894.9,0.087223
3897.8,0.087206
3900.8,0.087275
3903.7,0.087367
3906.7,0.087414
3909.6,0.087475
3912.6,0.08745
3915.5,0.087414
3918.5,0.087402
3921.4,0.087469
3924.4,0.087614
3927.4,0.087845
3930.4,0.088121
3933.3,0.08836
3936.3,0.088493
3939.3,0.0885
3942.3,0.088492
3945.3,0.088485
3948.3,0.088413
3951.3,0.088338
3954.3,0.088273
3957.4,0.088147
3960.4,0.087924
3963.4,0.08781
3966.4,0.087838
3969.5,0.087789
3972.5,0.08771
3975.6,0.087805
3978.6,0.087968
3981.7,0.088036
3984.7,0.08819
3987.8,0.08841
3990.9,0.088441
3993.9,0.088388
3997,0.08844
4000.1,0.088535